Fp1,Fp2,C3,C4,P7,P8,O1,O2
9036.430303624906,8611.590696762883,-49973.76203224207,-68552.71083744895,-29740.15828849772,-52021.69591447066,-66921.36876837835,-70723.19933452598
9028.003695965255,8542.680268607171,-50016.27505019606,-68603.06931770674,-29238.585142920634,-52073.68607207371,-66911.89162872931,-70772.12730313865
9018.995942949765,8401.03726399389,-50195.670151194354,-68782.8891018497,-28576.03473377642,-52257.77503940762,-67051.05358970804,-70956.12686349475
9025.723818030812,8450.836950640316,-50177.49818295219,-68758.97273528251,-28986.68098290932,-52232.405809450844,-67080.64729936687,-70939.31835166435
9048.656707841958,8609.80255720646,-49979.528782311536,-68551.79441592627,-29691.565596051885,-52024.512234272035,-66930.30946616047,-70729.7930991403
9048.41083865295,8586.377929017297,-49971.03511941852,-68555.37069503912,-29339.458565647434,-52023.7299232161,-66877.00055563457,-70718.99720656838
9010.725797501302,8407.072234996824,-50179.040453319605,-68759.68799110508,-28561.237878947006,-52242.7323153892,-67029.43945281976,-70936.30086616288
9021.901669728955,8425.020685794436,-50195.35722677198,-68782.91145359415,-28801.340317885915,-52262.692423187786,-67083.44126742378,-70958.11616875126
9044.253414184263,8589.21660056312,-50002.238154678125,-68585.81377098725,-29559.08680666528,-52070.378013894326,-66947.63206811334,-70761.86785243367
9039.671306570925,8593.597542476362,-49955.16538085525,-68541.84788964366,-29433.15707840408,-52020.801844692454,-66870.87617765382,-70716.44910770048
9024.919155230422,8440.085761557313,-50133.64406033088,-68725.26630464391,-28639.91601942969,-52197.738253800664,-66985.54062670954,-70895.84420869878
9021.633448795492,8404.457080895554,-50211.36107580198,-68800.70344218057,-28666.291077886952,-52274.31533030455,-67083.75419184616,-70971.1025322798
9040.587728093593,8556.851274591836,-50045.84640811043,-68623.99055051692,-29459.666247328074,-52107.86188934588,-66979.95269059572,-70801.89982675313
9043.471103128328,8606.60625774935,-49952.48317152062,-68539.0315698423,-29522.65346320313,-52014.789225433975,-66874.02777362202,-70719.19837226848
9020.985248206289,8459.464724000063,-50111.1805571533,-68705.52971428988,-28734.150974053264,-52177.062890179506,-66970.22968175766,-70880.86853991372
9018.191280149375,8394.845830779772,-50218.44657879431,-68810.89583765219,-28582.31557396836,-52280.26089432966,-67084.33533720199,-70979.66325040619
9044.655745584458,8540.176873228178,-50064.599521708435,-68649.22567000696,-29339.503269136345,-52126.68205817724,-67003.19850482923,-70835.60625739173
9061.151332992475,8636.848167997381,-49919.3802379823,-68507.29209271575,-29584.74660929997,-51987.78831813196,-66862.60603220535,-70695.0361365123
9035.089198957587,8501.106023920302,-50053.490704714146,-68662.12262655767,-28855.409187723304,-52126.54794771051,-66926.26380041406,-70826.30793169832
9022.058131940143,8391.42601387811,-50206.62250597746,-68803.85503814877,-28492.752133935945,-52284.32891182052,-67063.97289800321,-70988.33572725485
9042.152350205464,8508.415044357187,-50097.09895814645,-68686.39662103612,-29180.649421292477,-52165.52939004057,-67019.11294688142,-70876.28643230039
9061.687774859402,8634.94826971868,-49927.33745900839,-68516.65747364252,-29648.15850831968,-51989.57645768839,-66868.90922414175,-70698.45595341397
9042.17470194992,8530.386809156753,-50023.069980510474,-68617.03915799131,-29050.98695170724,-52097.6471421298,-66899.41935532325,-70795.48487609444
9036.653821069458,8407.027531507914,-50191.2445057922,-68792.45564847656,-28507.16900910962,-52269.91203664685,-67042.85049949295,-70972.28717473593
9058.133847491008,8499.228477386056,-50119.830682257496,-68712.92814170459,-29024.63424499443,-52183.38843386036,-67035.13914765586,-70904.5837407808
9074.405917454473,8640.826778510425,-49935.7864184125,-68523.4747557014,-29623.1916097631,-52003.50159448405,-66891.66329999725,-70723.22168627044
9058.9385102914,8571.469315465607,-49975.08078516493,-68573.3862010701,-29160.82342396062,-52049.255615384056,-66875.99472713408,-70756.72695120896
9032.854024512057,8413.733054844506,-50173.49722069469,-68771.26619473293,-28486.024258854897,-52256.05395508456,-67029.35004584194,-70958.67496236265
9041.861777527545,8461.990471123514,-50156.666357119844,-68751.06021774534,-28867.18855705125,-52230.64002163888,-67060.1731014458,-70938.20076444159
9067.74509760679,8626.298144614477,-49959.07693613493,-68543.61367745564,-29585.350106400267,-52025.60746975034,-66914.48443108612,-70734.48696547592
9058.357364935562,8600.303065812954,-49951.902026164775,-68545.44652050096,-29282.59572775313,-52027.84264419587,-66861.68961068269,-70729.68134041803
9037.21261468084,8440.555148190875,-50140.796618556575,-68746.8804415322,-28536.606256557257,-52227.175501248304,-66986.8593796324,-70926.08611894681
9041.235928682796,8443.52793020343,-50176.78292712962,-68775.89300583518,-28767.186852358205,-52262.04422259858,-67056.1721391883,-70963.52529090946
9063.252396971273,8608.66261823924,-49987.3965963598,-68568.04413414528,-29555.1752513856,-52063.96306323565,-66926.8449457699,-70767.14286412513
9065.867551072544,8632.266060384043,-49923.537662450995,-68508.58849389416,-29477.413532425588,-52004.10509158434,-66834.7781103585,-70703.50744766086
9057.887978302,8482.621131255763,-50088.71705397571,-68687.67067047008,-28670.381447122272,-52178.49340182464,-66931.67292257225,-70868.93270837459
9044.611042095548,8430.832139352815,-50186.97532260124,-68784.74429663949,-28663.228888896574,-52275.1870483383,-67047.54436582857,-70967.63801188923
9065.778144094724,8585.21563830562,-50019.583108375446,-68607.87494276464,-29490.332840720755,-52100.88814507582,-66954.96344029468,-70801.206922675
9085.60414142658,8658.1940839522,-49896.179127237694,-68476.37963013406,-29605.734897343507,-51972.58913190236,-66824.31749395341,-70677.46766537042
9058.290309702195,8507.766843767982,-50055.14473380384,-68650.87969909665,-28816.785373304534,-52150.41961078878,-66913.16567816326,-70845.84335635226
9050.64601309848,8431.949726575582,-50179.42043297535,-68773.00963080044,-28580.058047778377,-52266.00048136717,-67043.87867973789,-70973.36005846979
9081.871400102544,8577.727803913094,-50033.82116959348,-68621.88948653812,-29301.058268673216,-52103.88327883283,-66966.49694043362,-70812.98629200296
9084.374795481539,8664.027889255034,-49898.995447039066,-68481.67699356997,-29592.301498925866,-51966.30829171042,-66834.75575861403,-70670.11394144464
9070.628472641525,8546.211844231111,-50013.45873039469,-68602.42111711754,-28876.755103678122,-52094.696711861696,-66882.02969813702,-70794.65786154961
9050.109571231553,8424.66305788315,-50180.60507543148,-68777.6811453916,-28451.44611018254,-52255.91984461783,-67032.90397321034,-70963.90527056518
9065.129943505519,8531.660858590705,-50083.062062628516,-68669.81162665029,-29073.539861862646,-52148.385602043345,-67002.34913853992,-70864.81998739482
9091.437946729417,8668.47588640164,-49898.079025516396,-68472.3563161321,-29547.776823970897,-51965.436573676656,-66844.36700872982,-70674.45017986896
9079.569170423647,8578.912446369224,-49971.213933374165,-68562.83617768719,-28959.97064828523,-52043.175940892215,-66845.55165118595,-70740.99132311241
9050.35544042056,8430.250993996977,-50167.39519445839,-68770.55093891037,-28397.019612433865,-52252.969414349725,-67004.070222863,-70955.2998489499
9061.240739970295,8503.855288488305,-50115.02505719961,-68715.49859231694,-28916.13887740837,-52205.56136436002,-67005.54543799705,-70904.15905763615
9075.545856421693,8648.51577860305,-49928.58915669789,-68518.40090971005,-29563.110120667236,-51997.89130662577,-66861.7343141716,-70695.4831714014
9069.734402863312,8597.330283800398,-49952.48317152062,-68551.2803258038,-29132.61552245802,-52027.90969942924,-66836.78976735947,-70719.71246239096
9047.963803763843,8441.538624946908,-50146.473961648226,-68750.99316251196,-28425.451031381017,-52227.75664660414,-66984.02070808658,-70920.7887555109
9054.89284454499,8481.1012126328,-50137.5332638661,-68730.2730954019,-28787.45988457917,-52214.25619295314,-67021.23636260467,-70915.96077870856
9087.504039705282,8655.556578106472,-49936.658136446255,-68525.37465398009,-29535.550419753843,-52006.00498986304,-66876.03943062299,-70717.11966003415
9086.431155971428,8646.772342535538,-49919.49199670458,-68507.24738922685,-29297.79491398274,-51987.43069022068,-66816.7179008386,-70693.02447951132
9069.51088541876,8489.594875525818,-50102.79865298256,-68699.9641299205,-28543.98233222751,-52180.90739022582,-66941.41828315477,-70883.77426669291
9063.252396971273,8474.172171851656,-50151.36899368394,-68740.75606355144,-28696.175360223697,-52225.76734134762,-67022.91274343882,-70937.08317721882
9080.642054157503,8630.813196994448,-49975.08078516493,-68554.47662526091,-29464.337761919232,-52043.734734503596,-66911.51164907357,-70756.61519248667
9083.03369081422,8661.09981073139,-49908.24906924356,-68499.44663041194,-29397.14841808658,-51983.116803540805,-66818.84131656185,-70688.75529632036
9059.117324247041,8501.284837875943,-50083.59850449544,-68679.89226339964,-28593.89377759621,-52166.3117010965,-66928.2978091595,-70869.1785775636
9046.399181651972,8445.628994182229,-50185.16483130036,-68786.15245654016,-28548.184460185108,-52272.05780411456,-67047.87964199539,-70972.68950613613
9068.79562959619,8598.1796500897,-50022.04180026553,-68611.18300094402,-29334.116498722615,-52098.205935741185,-66953.46587341618,-70807.3089489113
9085.648844915491,8676.90249406129,-49895.352112692846,-68483.0628017262,-29489.237605242444,-51970.08573652336,-66821.67998810769,-70680.66396482754
9066.336937706106,8537.44996040463,-50041.48781794165,-68645.31411472728,-28721.812811113934,-52132.806436157996,-66898.74880298959,-70831.42648117858
9059.005565524765,8456.201369309589,-50170.01034855966,-68774.95423256805,-28467.226441767987,-52267.96743487924,-67024.5220690396,-70963.77116009846
9083.771298381245,8592.994045376068,-50033.55294866001,-68629.33261744173,-29199.000203490283,-52125.29625002101,-66959.4561409302,-70827.00083577643
9103.641999202013,8704.350436252409,-49877.06838572841,-68468.46711259689,-29517.445506745044,-51964.251931220526,-66816.33792118287,-70664.77187451982
9084.307740248172,8583.136926071278,-49992.55984932898,-68597.54843682628,-28823.110916985384,-52088.192354225204,-66862.15899731625,-70782.47616082146
9068.415649940449,8463.465686257565,-50159.97441529923,-68767.28758421988,-28388.593004774215,-52259.339661519494,-67013.07797587848,-70960.68661936362
9078.183362267418,8560.539312426963,-50078.09997535944,-68680.98749887795,-29030.64686425291,-52172.74900349963,-66998.83991466045,-70878.05222011235
9101.250362545296,8695.923828592757,-49895.32976094839,-68489.70126982943,-29553.409463573633,-51980.00991106152,-66836.11921502581,-70677.04298222577
9091.214429284862,8612.104786885357,-49956.372375055835,-68556.75650319536,-29001.477837738734,-52036.9845076781,-66832.58763940187,-70734.2410962869
9077.468106444849,8472.272273572955,-50136.63919408789,-68741.11369146273,-28390.984641430932,-52225.52147215861,-66974.18594052625,-70921.32519737782
9080.038557057209,8530.029181245469,-50106.1737663953,-68708.30133060233,-28875.65986819981,-52192.4185386203,-67003.08674610696,-70896.40300231017
9097.472917732348,8675.695499860705,-49917.12271179232,-68513.84115384116,-29559.220917132014,-52003.36748401731,-66864.34946827286,-70718.37135772363
9077.624568656036,8619.682028255706,-49946.179979584216,-68549.02279961381,-29158.85647044855,-52032.64826925377,-66838.82377610491,-70744.25467780289
9075.344690721595,8483.068166144869,-50117.796673512064,-68723.36640636521,-28431.9106855286,-52205.650771337845,-66962.27246073156,-70903.06382215784
9088.062833316664,8516.528727594463,-50119.07072294602,-68715.61035103921,-28737.436680488194,-52198.85584102343,-67008.89819966533,-70906.05895591485
9100.021016600254,8665.927787533736,-49940.14500858128,-68530.09087206017,-29483.47085517298,-52019.57249874741,-66883.8848929268,-70732.22943928593
9099.015188099766,8663.603206110383,-49904.60573489735,-68497.01029026632,-29262.210936809894,-51983.0721000519,-66807.53133386748,-70699.39472668109
9081.357309980072,8505.799890255916,-50087.55476326404,-68680.74162968894,-28475.898918616644,-52165.21646561819,-66924.78858528001,-70881.15911259165
9073.467144187349,8482.554076022396,-50153.71592685174,-68743.63943858618,-28604.980242846043,-52218.07834125499,-67016.54249626904,-70942.78287205493
9099.104595077586,8648.0910954584,-49969.872828706844,-68551.79441592627,-29433.73822375992,-52019.259574325035,-66896.62538726632,-70754.51412850787
9101.004493356288,8685.038529043022,-49890.792356823964,-68470.79169402024,-29441.181354663535,-51936.08873320684,-66792.0639267044,-70668.41520886603
9079.926798334933,8530.11858822329,-50058.40808849432,-68656.64644916612,-28670.895537244745,-52111.99696207011,-66890.70217498568,-70839.83073709378
9077.781030867223,8476.362642808275,-50157.515723409146,-68748.71328457753,-28606.634271935734,-52208.91412602832,-67002.57265598449,-70942.31348542136
9096.578847954137,8623.99591493558,-50002.81930003397,-68581.41047732955,-29394.265043051844,-52048.02626943902,-66919.82649801094,-70785.85127423421
9098.746967166302,8693.1522122803,-49885.33853117687,-68471.61870856509,-29586.24417617848,-51934.2111866726,-66797.98713898506,-70667.56584257673
9076.17170526644,8555.264300735511,-50026.713314856686,-68621.84478304921,-28833.88445781284,-52082.11267973336,-66872.12787534331,-70811.22050419099
9062.380678937518,8458.794171666405,-50169.63036890392,-68768.76279935394,-28527.419689586128,-52215.28437319808,-67008.45116477623,-70955.07633150535
9076.641091900003,8579.560646958429,-50048.84154186744,-68636.26165822288,-29255.483061728846,-52088.52763039203,-66963.23358574315,-70835.22627773599
9115.399016785505,8715.369846268875,-49862.02566170999,-68450.89864145502,-29673.326572576356,-51915.7039422636,-66798.83650527436,-70652.23254588038
9096.064757831664,8601.867687924825,-49968.8446484619,-68573.36384932564,-29009.725631442743,-52020.28775456998,-66834.73340686958,-70758.93977391002
9079.435059956915,8478.486058531531,-50141.578929612515,-68748.46741538851,-28532.940570466588,-52199.90637301283,-66983.46191447519,-70941.73234006553
9106.123042836552,8583.092222582367,-50054.42947798127,-68653.47250145346,-29134.80599341464,-52106.83370910093,-66963.0547717875,-70851.90067909965
9112.42623477295,8705.289209519531,-49883.885667787275,-68468.24359515234,-29699.70163103362,-51931.394866871226,-66827.33497945487,-70669.42103736651
9092.89081011901,8621.1348916453,-49948.482209263115,-68554.18605258298,-29172.28986886619,-52005.33443752938,-66826.32915095439,-70730.68716891852
9077.781030867223,8478.508410275985,-50127.58673758349,-68743.10299671924,-28517.294349347874,-52189.33399788547,-66963.09947527641,-70914.6867292746
9085.22416177084,8539.327506938876,-50092.069815644005,-68693.30331007282,-28939.943485253276,-52140.83071241745,-66980.17620804027,-70874.05125785485
9110.61574347207,8699.81303212798,-49898.79428133897,-68485.78971454976,-29626.812592364862,-51938.100390207816,-66836.4768429371,-70673.22083392392
9116.002513885798,8673.9967672821,-49903.26463023003,-68500.74303159035,-29274.54909974922,-51955.75826832751,-66792.5109615935,-70690.00699400986
9075.903484332977,8494.288741861432,-50099.848222714456,-68704.5685892783,-28532.068852432833,-52155.69462248023,-66930.08594871592,-70894.83838019829
9046.55564386316,8482.218799855567,-50126.49150210518,-68726.00391221093,-28792.757248015077,-52175.49826806763,-66990.81563840099,-70902.12504889072
9061.419553925938,8636.110560430356,-49929.79615089848,-68520.16669752201,-29542.390053557167,-51960.98857653005,-66854.06766582343,-70695.77374407933
9051.69654508788,8632.489577828595,-49887.5737056224,-68483.6662988265,-29375.310763753747,-51921.18011965515,-66777.3117753639,-70659.60862155064
9010.97166669031,8448.087686072313,-50080.29044631606,-68685.45784776901,-28592.41856246216,-52121.2505842746,-66905.7448990041,-70852.16890003311
8980.595645975549,8393.2812086679,-50157.04633677559,-68763.77836034041,-28663.251240641028,-52188.05994845152,-67002.4161937733,-70926.26493290246
8978.561637230116,8523.904803264715,-49992.537497584526,-68595.87205599213,-29471.870299800674,-52014.40924577824,-66903.15209664727,-70758.71625646547
8975.745317428746,8557.208902503122,-49885.89732478825,-68498.55256063373,-29526.050928360335,-51913.22289862906,-66779.43519108715,-70654.51242381483
8938.216738488287,8385.905132997648,-50053.7142221587,-68674.6619551971,-28744.768052669533,-52089.82403157044,-66878.40871553526,-70827.60433287673
8908.220697429264,8294.531201664353,-50167.8422293475,-68782.26325300494,-28600.8004666329,-52204.77905330409,-66998.37052802689,-70946.60502035679
8916.110863221988,8421.891441570693,-50026.37803868986,-68635.36758844467,-29382.753894657362,-52051.49078982959,-66927.98488473712,-70804.5596843433
8920.983543513245,8495.875715717759,-49888.53483063398,-68498.08317400017,-29604.14792348718,-51911.971200939566,-66788.77822026947,-70651.94197320247
8893.513249577672,8355.350298327243,-50018.666686852775,-68639.07797802424,-28865.445120983735,-52050.41790609573,-66845.14931978576,-70780.66566952059
8869.060441143565,8236.953107947482,-50177.565238185554,-68802.20100905908,-28539.60139031427,-52213.07155049701,-66994.48132449166,-70949.22017445805
8863.89718817439,8331.568042226798,-50065.20301880873,-68674.75136217491,-29235.232381252335,-52078.02231049804,-66951.81184432648,-70832.16408874562
8879.14107789291,8446.1430843047,-49899.5765923949,-68507.13563050456,-29648.516136230963,-51916.150977152705,-66803.59742684333,-70662.04496169627
8855.448228770283,8332.104484093725,-50003.13222445634,-68625.10813773968,-29004.98706161822,-52026.07685638391,-66834.88986908077,-70768.9980589149
8827.061513312045,8189.969741102427,-50174.34658698399,-68801.32929102532,-28493.199168825053,-52204.06379748152,-66974.14123703733,-70945.17450871164
8831.621269180927,8270.458372885987,-50104.27386811661,-68724.08166218777,-29070.27650717217,-52126.27972677705,-66966.4075334558,-70874.61005146624
8859.493894516694,8421.220889237034,-49908.36082796584,-68521.99954056735,-29660.742540448016,-51928.109160436295,-66811.53229612498,-70688.33061317571
8839.17615880682,8345.157902855624,-49964.10607863737,-68586.57373029873,-29159.72818848231,-51991.096376311354,-66807.46427863411,-70734.48696547592
8812.287010227086,8183.5547904437535,-50156.10756350846,-68778.10582853625,-28514.612140013236,-52183.09786118244,-66959.38908569684,-70919.15707816566
8827.352085989964,8237.221328880945,-50127.34086839448,-68745.74050256498,-28921.615054799924,-52153.8617794349,-66986.70291742122,-70896.09007788778
8842.618327452938,8393.214153434534,-49944.66006096126,-68563.88670967659,-29611.971034046535,-51967.49293416655,-66856.23578503559,-70715.59974141118
8842.886548386401,8367.822571733304,-49936.099342834874,-68547.6816949465,-29294.55391103672,-51960.13921024075,-66808.42540364568,-70724.31692174876
8831.710676158747,8216.81418619325,-50116.72378977821,-68740.8231187848,-28562.80250105888,-52154.86760793538,-66929.25893417108,-70913.65854902966
8841.724257674725,8233.220366623445,-50134.7839992981,-68751.3284386788,-28805.967128988163,-52161.75194522762,-66986.30058602103,-70908.20472338256
8872.770830723148,8399.494993626475,-49948.973947641134,-68559.77398869682,-29587.272356423422,-51970.91275106821,-66865.06472409544,-70720.13714553561
8867.026432398134,8403.85358379526,-49904.87395583081,-68527.07338655871,-29427.323273101247,-51932.512454093994,-66791.6168918153,-70685.62605209662
8854.442400269794,8256.756753534884,-50081.36333004991,-68716.01268243941,-28606.120181813265,-52119.19422378472,-66904.62731178133,-70866.6751821846
8854.8894351589,8231.946317189493,-50160.98024379972,-68788.20881703006,-28635.311560071896,-52195.54778284404,-67006.37245254188,-70944.88393603373
8884.214923884265,8395.89636276917,-49990.9505237282,-68604.5892363297,-29424.68576725552,-52016.7785306905,-66904.15792514777,-70773.04372466133
8898.542392080117,8462.236340312522,-49880.957589263635,-68503.7158136029,-29502.156913537612,-51911.747683495014,-66777.53529280845,-70661.19559540697
8891.367482109963,8332.707981194018,-50034.02233529357,-68663.79900739182,-28700.690412603668,-52072.23320868411,-66856.21343329114,-70816.5625711158
8881.33154884953,8259.751887291895,-50164.60122640148,-68787.0912298073,-28523.731651751,-52201.00160849114,-66991.44148724574,-70950.27070644745
8907.19251718432,8403.384197161698,-50014.84453855092,-68626.65040810709,-29299.94068145045,-52045.05348742646,-66914.35032061939,-70810.43819313505
8930.997125029222,8506.023407700468,-49872.8215542819,-68491.75763031932,-29591.3850774032,-51907.65731425969,-66778.29525211993,-70670.27040365581
8915.9544010108,8379.758403272439,-49995.666741808265,-68631.90306805409,-28877.53741473406,-52041.32074610243,-66835.26984873651,-70790.03105044736
8908.019531729165,8279.332015434744,-50148.39621167138,-68787.47120946302,-28528.02318668642,-52191.591524075455,-66973.33657423695,-70941.3970638987
8927.174976727365,8399.47264188202,-50046.7628296331,-68665.94477485953,-29219.407346177977,-52080.77157506604,-66938.71372207567,-70835.60625739173
8958.936805598356,8538.50049239403,-49870.96635949211,-68491.80233380823,-29698.002898455015,-51906.38326482574,-66785.5595690679,-70659.47451108391
8948.878520593467,8438.252918511978,-49952.4384680317,-68580.7399249959,-29067.080207715062,-52000.41705374922,-66799.30589190792,-70747.6521429601
8930.818311073579,8300.45441394501,-50135.78982779859,-68766.30410746386,-28525.564494796337,-52179.90156172533,-66950.49309140362,-70935.47385161804
8947.872692092978,8389.548467343864,-50077.20590558123,-68703.07102239979,-29088.582585881068,-52115.43913071622,-66955.58928913943,-70875.0794380998
8984.194276832852,8550.972765800092,-49881.91871427521,-68501.8159153242,-29714.610244585307,-51915.659238774686,-66801.49636286455,-70680.0381159828
8979.9697971308,8498.245000630022,-49917.18976702569,-68541.71377917693,-29260.84748039812,-51970.35395745683,-66779.56930155389,-70722.34996823668
8956.34400324154,8342.98978364346,-50116.276754889106,-68755.21764221402,-28602.27568176695,-52170.67029126529,-66926.5990765809,-70918.75474676547
8958.959157342812,8378.909036983137,-50113.97452521021,-68733.93878149257,-29017.615797235467,-52157.75098297012,-66971.59313816942,-70913.3903280962
8992.30796007013,8552.35857395632,-49913.43467395719,-68526.73811039187,-29748.540192668464,-51955.73591658306,-66824.09397650886,-70715.77855536682
8996.241867094262,8541.40621917322,-49893.72043534761,-68513.99761605235,-29462.92960201855,-51939.46384661959,-66763.65485950171,-70686.96715676393
8990.58687574707,8393.840002279283,-50072.69085320125,-68704.25566485593,-28706.25599697304,-52119.440092973724,-66883.25904408205,-70855.65577216813
8995.884239182978,8395.605790091251,-50112.0299234426,-68730.42955761308,-28886.9698508942,-52157.214541103196,-66960.77489385306,-70905.79073498139
9020.985248206289,8558.348841470342,-49928.142121808785,-68534.6729796735,-29662.77654919345,-51976.05365229293,-66840.23193600558,-70731.692997419
9027.601364565058,8584.478030738597,-49857.93529247466,-68470.18819691995,-29554.348236840757,-51907.836128215335,-66739.38086502324,-70656.61348779363
8994.520782771204,8413.822461822327,-50051.52375120208,-68676.58420522025,-28731.96050309664,-52108.487738190626,-66861.0861135824,-70831.47118466749
8989.581047246582,8371.75647875744,-50142.472999390724,-68765.03005802991,-28688.598118853348,-52191.94915198674,-66969.13444627935,-70922.4427846006
9009.11647190052,8525.1117974653,-49981.16045965677,-68597.03434670382,-29487.807093597305,-52018.857242924845,-66877.78286669051,-70764.7512274684
9033.859853012545,8604.41578679273,-49858.0694029414,-68468.914147486,-29611.009909034958,-51901.22001185656,-66749.86383317279,-70649.46092956793
9014.659704525437,8459.1965030666,-50015.40333216231,-68633.26652446587,-28805.341280143417,-52072.16615345075,-66834.21931674711,-70815.60144610422
8999.773442718202,8373.164638658123,-50149.35733668296,-68769.74627610997,-28575.31947795385,-52210.612858606924,-66959.61260314139,-70945.15215696719
9020.35939936154,8505.755186767004,-50016.07388449596,-68622.47063189396,-29315.631606058076,-52071.38384239481,-66896.98301517761,-70803.19622793153
9032.854024512057,8600.146603601766,-49873.98384499358,-68483.75570580432,-29622.56576091835,-51934.94879423962,-66767.07467640337,-70665.95651697594
9025.857928497546,8494.57931453935,-49978.545305555504,-68592.78751525731,-28912.80846748453,-52046.08166767141,-66805.11734546631,-70778.38579158614
9023.443940096371,8395.270513924423,-50130.179539940305,-68746.09813047625,-28486.761866421923,-52201.0686637245,-66941.10535873238,-70935.07152021784
9045.773332807223,8507.051587945412,-50030.28959396954,-68641.87194608116,-29143.90315340795,-52091.56746763796,-66909.29882637248,-70829.45952766652
9077.691623889403,8649.298089658987,-49846.066516168896,-68454.49727231232,-29620.732917873018,-51909.82543347185,-66754.69180997513,-70648.18688013397
9067.231007484319,8561.925120583192,-49919.42494147122,-68541.75848266584,-29017.83931468002,-51992.705701912135,-66768.10285664831,-70728.92138110654
9041.973536249821,8413.308371699855,-50113.460435087734,-68744.26528743093,-28414.25280740891,-52192.73146304268,-66927.98488473712,-70927.80720326987
9057.955033535365,8488.611398769785,-50056.709355915715,-68670.28101328385,-28910.61799652791,-52134.08048559195,-66929.1471754488,-70871.39140026468
9091.147374051498,8651.33209840442,-49853.64375753925,-68466.05312419572,-29598.537635628898,-51920.28604987694,-66767.02997291446,-70660.5250430733
9083.950112336888,8598.649036723262,-49881.11405147482,-68507.11327876011,-29203.716421570352,-51957.47935265057,-66740.14082433473,-70685.35783116316
9059.854931814067,8438.85641561227,-50080.111632360415,-68716.50442081744,-28512.376965567706,-52161.953110927716,-66887.32706157293,-70888.15520860616
9063.453562671371,8467.846628170804,-50084.71609171821,-68714.44806032754,-28862.04765582653,-52160.43319230476,-66937.52907961955,-70894.90543543166
9095.304798520185,8638.144569175789,-49882.008121253035,-68497.70319434443,-29616.463734682053,-51954.70773633811,-66793.516790094,-70692.57744462222
9100.08807183362,8638.301031386976,-49851.27447262698,-68479.28535691326,-29371.95800208545,-51927.86329124729,-66723.62288518225,-70663.34136287468
9082.586655925114,8480.430660299142,-50040.28082374106,-68681.56864423379,-28565.864690049257,-52128.380790755844,-66850.04435182147,-70860.66256292613
9081.871400102544,8469.746526449506,-50091.55572552153,-68726.89798198915,-28697.315299190916,-52167.85397146392,-66930.1530039493,-70896.06772614333
9112.76151093978,8633.450702840175,-49901.34238020687,-68527.18514528098,-29484.387276695645,-51970.24219873455,-66803.73153731007,-70696.37724117962
9118.505909264793,8666.263063700564,-49824.541786258436,-68459.97344970387,-29455.173546692557,-51896.21322109857,-66702.56754190536,-70624.11405135562
9087.884019361021,8502.670646032173,-50010.37418965986,-68652.53372818635,-28675.499996602535,-52088.01354026956,-66817.05317700544,-70812.15927745811
9082.22902801383,8453.161532063667,-50107.87249897391,-68746.0757787318,-28639.603095007315,-52180.058023936515,-66931.4494051277,-70911.19985713958
9098.970484610854,8601.778280947005,-49952.818447687445,-68593.52512282433,-29430.340758602713,-52027.46266454014,-66846.87040410882,-70756.57048899776
9112.292124306217,8674.063822515467,-49833.92951892967,-68462.36508636059,-29564.00419044545,-51910.02659917195,-66722.19237353711,-70637.79331896226
9089.716862406358,8529.1127597228,-49982.56861955746,-68621.84478304921,-28757.128567353317,-52059.76093527806,-66797.13777269576,-70787.30413762381
9082.385490225017,8445.181959293122,-50114.46626358823,-68764.67243011862,-28478.335258762272,-52196.73242530018,-66927.6496085703,-70924.07446194583
9108.46997600436,8578.21954229111,-49976.91362821026,-68613.12760271164,-29208.58910186161,-52058.86686549984,-66862.71779092762,-70787.86293123518
9120.80813894369,8679.919979562757,-49831.247309595026,-68464.44379859493,-29547.79917571535,-51912.61940152877,-66729.501393974,-70641.9730951754
9102.569115468159,8567.289539252466,-49941.53081673751,-68587.44544833248,-28852.05642605501,-52030.97188841962,-66773.71314450659,-70758.11275936518
9100.155127066986,8461.72225019005,-50087.6218184974,-68738.34207515027,-28405.96031021599,-52184.66248329431,-66902.36978559135,-70913.01034844045
9113.521470251259,8558.192379259155,-50006.52968961355,-68650.34325722972,-29042.6050475365,-52086.2924559465,-66882.96847140414,-70821.50230664042
9119.37762729855,8678.936502806724,-49846.64766152474,-68482.30284241472,-29576.81174001834,-51917.760302753486,-66746.24285057103,-70639.98378991889
9105.005455613787,8596.570324488917,-49910.19367101118,-68548.03932285777,-29048.79648075062,-51991.47635596709,-66748.88035641675,-70703.6862616165
9099.909257877976,8465.276177558444,-50080.06692887151,-68726.78622326687,-28423.953464502512,-52163.98711967315,-66881.20268359217,-70881.33792654729
9115.913106907978,8534.767751069994,-50032.99415504863,-68667.88937662714,-28883.326516547982,-52116.020276072064,-66898.30176810047,-70841.06008303883
9139.427142074961,8691.654645401793,-49840.85855971081,-68473.1609789325,-29530.096594106748,-51914.72046550757,-66749.86383317279,-70643.8282899652
9127.84893844711,8645.632403568317,-49860.461039598114,-68504.16284849201,-29120.970263596806,-51941.02846873146,-66720.22542002505,-70664.90598498654
9106.972409125854,8487.270294102465,-50051.85902736891,-68707.3625573352,-28430.279008183363,-52144.38463978584,-66860.75083741556,-70862.71892341602
9123.915031422977,8523.34600965333,-50050.562626190505,-68693.19155135055,-28786.766980501056,-52140.38367752835,-66907.13070716032,-70864.32824901679
9158.962566728898,8694.426261714252,-49848.52520805898,-68482.45930462591,-29543.105309379735,-51938.34625939683,-66760.7044292336,-70665.17420592
9150.37949685806,8686.491392432617,-49821.12196935678,-68459.32524911467,-29301.818227984695,-51910.51833754997,-66689.26825395445,-70626.99742639034
9129.95000242591,8525.715294565594,-50006.909669269284,-68659.88745211213,-28490.91929089061,-52100.575220653445,-66810.72763332458,-70810.12526871268
9123.602107000603,8500.949561709114,-50078.47995501518,-68725.48982208846,-28598.095905553808,-52168.256302864116,-66911.82457349593,-70881.44968526956
9152.234691647851,8667.984148023623,-49899.53188890599,-68533.84596512865,-29403.00457513387,-51977.28299823797,-66800.80345878642,-70700.55701739276
9150.535959069248,8706.965590353679,-49813.92470764217,-68450.0045716768,-29410.693575226498,-51899.02954089994,-66695.1914662351,-70613.9663593729
9131.201700115407,8551.285690222465,-49971.88448570782,-68621.33069292673,-28616.536094729436,-52068.96985399364,-66786.14071442375,-70776.57530028526
9120.651676732503,8487.471459802564,-50083.419690539806,-68728.75317677893,-28496.730744448992,-52179.633340791865,-66910.25995138407,-70893.36316506423
9145.730334011358,8639.686839543205,-49924.431732229204,-68560.10926486364,-29267.910631645995,-52014.163376589226,-66826.7761858435,-70735.02340734284
9164.639909820546,8727.551546997018,-49792.444681220615,-68428.32337955515,-29479.73811384894,-51879.40470926818,-66693.51508540096,-70600.13062955506
9148.300784623718,8595.519792499517,-49926.30927876345,-68572.7827039698,-28745.483308492105,-52026.79211220647,-66750.04264712843,-70734.46461373146
9120.830490688144,8483.269331844966,-50087.35359756394,-68736.53158384938,-28450.261467726406,-52188.730500785176,-66896.13364888831,-70892.11146737474
9139.04716241922,8605.399263548763,-49968.37526182834,-68613.08289922272,-29168.802996731163,-52061.54907483448,-66847.89858435377,-70766.78523621384
9162.360031886104,8725.96457314069,-49799.574887701856,-68441.89088843952,-29574.241289405978,-51892.18990709662,-66695.52674240193,-70602.99165284535
9140.611784531091,8611.65775199625,-49903.175223252205,-68554.56603223873,-28903.733659235677,-52002.629876450286,-66731.26718178597,-70715.0409477998
9127.84893844711,8486.935017935637,-50068.24285605465,-68719.3207406188,-28400.931167713545,-52171.51965755459,-66871.77024743202,-70877.33696428979
9152.569967814681,8592.524658742506,-49980.445203834206,-68621.35304467118,-28987.955032343274,-52072.76965055104,-66845.28343025249,-70778.0058119304
9169.825514534177,8730.68079122076,-49803.79936740391,-68443.88019369605,-29548.4250245601,-51882.91393314766,-66694.85619006827,-70591.30169049522
9157.934386483954,8653.52256936104,-49857.97999596358,-68503.11231650261,-29012.139619843918,-51951.08675373635,-66689.17884697662,-70655.13827265958
9141.550557798215,8511.767806025482,-50043.29830924253,-68696.54431301884,-28374.04201913381,-52146.32924155346,-66840.74602612806,-70857.10863555773
9150.781828258256,8567.781277630482,-50014.84453855092,-68661.96616434648,-28837.304274714505,-52115.662648160775,-66874.20658757766,-70835.89683006964
9164.796372031733,8715.369846268875,-49833.013097407,-68466.2095864069,-29535.438661031567,-51919.436683587635,-66737.59272546682,-70631.08779562567
9154.559273071203,8678.131840006334,-49840.59033877735,-68484.87329302708,-29174.92737471192,-51931.77484652697,-66694.38680343471,-70633.5688392602
9146.780866000756,8531.012658001502,-50016.52091938507,-68667.55410046031,-28395.700859511002,-52098.38474969682,-66812.9181042812,-70809.52177161239
9150.357145113605,8545.720105853094,-50041.80074236402,-68685.27903381336,-28631.779984447956,-52121.56350869698,-66881.26973882553,-70839.18253650458
9172.418316890993,8706.540907209028,-49856.39302210725,-68484.02392673778,-29401.708173955463,-51931.64073606023,-66758.49160653254,-70657.10522617164
9172.306558168717,8713.738168923637,-49809.230841306555,-68442.404978562,-29266.703637445407,-51891.184078596125,-66677.44418113759,-70610.34537677115
9150.446552091427,8552.537387911963,-49990.145860927805,-68636.19460298952,-28495.054363614843,-52079.184601209716,-66794.3661563833,-70797.20596041752
9152.234691647851,8530.20799520111,-50053.33424250296,-68700.00883340942,-28553.772396298933,-52141.50126475111,-66884.3319278159,-70864.99880135046
9174.362918658606,8689.106546533889,-49879.03533924047,-68515.78575560877,-29378.81998763323,-51963.067288764396,-66778.5634730534,-70689.62701435412
9185.784660075267,8741.230814603665,-49782.63226540474,-68413.83944914812,-29436.5992470502,-51870.26284578596,-66661.59679431877,-70594.34152774114
9156.325060883173,8581.41584174822,-49958.02640414553,-68602.93520724002,-28648.566144533892,-52050.8872927293,-66763.47604554606,-70769.3556868262
9145.640927033535,8513.868870004282,-50073.406109023825,-68720.03599644137,-28492.50626474694,-52170.58088428747,-66888.5340557735,-70887.12702836121
9171.837171535155,8663.33498517692,-49918.24029901509,-68554.0295903718,-29257.472366985367,-52006.16145207423,-66805.00558674402,-70729.39076774011
9184.868238552599,8751.78083798657,-49784.30864623888,-68417.39337651651,-29502.581596682263,-51869.68170043012,-66671.3868583902,-70591.79342887324
9167.031546477265,8619.860842211347,-49912.138272778786,-68563.84200618768,-28771.299573337983,-52012.19642307716,-66725.12045206076,-70722.12645079213
9152.592319559137,8516.707541550106,-50061.15735306232,-68701.97578692148,-28429.519048871884,-52147.98327064315,-66857.3310205139,-70863.27771702739
9164.975185987376,8631.148473161278,-49954.69599422169,-68585.07616342022,-29142.85262141855,-52039.10792340135,-66819.2212962176,-70755.34114305272
9172.284206424261,8743.063657649,-49796.19977428911,-68428.45749002189,-29617.33545271581,-51881.01403486896,-66681.86982653974,-70595.77203938628
9153.95577597091,8634.098903429378,-49890.14415623476,-68534.11418606213,-28973.515805425144,-51985.91077159772,-66711.32942573183,-70693.85149405617
9146.199720644918,8512.214840914588,-50051.27788201307,-68704.76975497839,-28414.588083575738,-52155.82873294696,-66847.94328784267,-70868.79859790785
9157.867331250589,8598.961961145635,-49985.85432599239,-68625.5998761177,-28988.06679106555,-52078.894028531795,-66850.04435182147,-70805.18553318805
9180.062613494709,8745.120018138889,-49796.62445743376,-68433.97837090235,-29580.790350531384,-51883.76329943696,-66698.49952441448,-70597.64958592053
9180.643758850547,8691.945218079713,-49823.78182694696,-68460.42048459298,-29049.46703308428,-51919.771959754464,-66663.54139608638,-70618.74963268633
9155.989784716343,8535.68417259266,-50019.87368105337,-68666.88354812664,-28372.47739702194,-52116.46731096117,-66814.52742988199,-70822.95517003002
9173.267683180295,8590.065966852424,-49993.789195274025,-68631.18781223152,-28799.909806240776,-52083.520839634046,-66845.26107850803,-70803.82207677628
9188.668035110002,8742.638974504349,-49810.39313201823,-68440.34861807211,-29519.546570723844,-51900.43770080063,-66712.67053039915,-70619.50959199782
9183.303616440728,8715.146328824321,-49804.64873369321,-68444.39428381852,-29185.387991117,-51897.42021529916,-66658.40049486166,-70607.77492615879
9157.152075428019,8546.815341331405,-50001.99228548912,-68652.46667295297,-28418.8572667667,-52092.528592649534,-66798.70239480762,-70799.01645171839
9167.09860171063,8560.807533360427,-50023.67347761077,-68671.5550627178,-28657.81976673839,-52119.21657552917,-66865.4894072401,-70831.33707420077
9205.29773298475,8737.855701190914,-49824.318268813884,-68462.56625206069,-29442.947142475507,-51921.403637099706,-66734.23996379852,-70648.4774528119
9199.530982915281,8743.465989049195,-49778.20662000259,-68417.61689396107,-29318.827905515183,-51880.65640695768,-66654.71245702654,-70595.30265275273
9179.257950694317,8581.572303959407,-49956.41707854475,-68605.97504448594,-28516.132058636198,-52058.30807188846,-66762.00083041201,-70756.59284074222
9168.48440986686,8539.50632089452,-50041.62192840838,-68689.83878968225,-28571.430274418628,-52138.61788971638,-66870.80912242045,-70848.5255656869
9190.232657221874,8693.845116358414,-49871.525153103496,-68510.64485438405,-29403.518665256343,-51966.93414055516,-66769.33220259336,-70679.50167411586
9199.285113726273,8749.88093970787,-49771.50109666599,-68420.41086201798,-29506.537855450853,-51864.45139222758,-66649.25863137945,-70574.06849552017
9172.23950293535,8596.235048322087,-49932.59011895539,-68588.83125648872,-28713.00622379854,-52035.57634777741,-66737.65978070018,-70738.1973550555
9163.09763945313,8523.703637564617,-50050.406163979314,-68701.93108343257,-28509.98532891099,-52157.72863122566,-66866.69640144067,-70865.15526356164
9197.027587536286,8673.683842859728,-49894.03335976999,-68542.31727627722,-29271.106931103102,-51994.82911763539,-66781.20097889913,-70706.92726456252
9205.141270773564,8759.648652034837,-49761.263997705464,-68407.4468502339,-29570.262678892934,-51859.534008447416,-66652.41022734765,-70572.88385306405
9175.569912859191,8621.60427827886,-49894.48039465909,-68556.08595086168,-28879.504368246126,-52002.65222819475,-66712.6928821436,-70710.90587507556
9160.326023140673,8512.97480022607,-50049.44503896774,-68719.5666098078,-28508.331299821297,-52150.86664567789,-66853.39711348976,-70863.61299319423
9189.763270588312,8636.982278464113,-49934.19944455617,-68580.47170406244,-29164.220889117827,-52028.24497559607,-66802.63630183176,-70741.08073009024
9194.144212501551,8751.713782753204,-49776.12790776824,-68419.40503351748,-29632.66874941215,-51863.11028756026,-66661.66384955215,-70572.10154200811
9190.478526410881,8665.748973578093,-49846.78177199147,-68497.88200830008,-29045.622533037968,-51943.978898999565,-66668.23526242201,-70649.23741212337
9169.154962200519,8526.54230911044,-50029.32846895796,-68691.38106004967,-28473.037895326364,-52129.63248844534,-66818.34957818384,-70836.90265857014
9174.921712269988,8595.542144243973,-49977.96416019966,-68629.64554186411,-28990.637241677912,-52068.43341212672,-66829.83837483387,-70788.57818705776
9205.25302949584,8751.467913564196,-49777.31255022437,-68432.145527857,-29586.62415583422,-51865.524275961434,-66672.41503863514,-70591.45815270641
9191.05967176672,8687.072537788456,-49813.05298960841,-68482.28049067027,-29123.563065953622,-51914.94398295212,-66652.74550351447,-70632.49595552635
9170.786639545757,8531.97378301308,-50006.015599491075,-68667.46469348249,-28445.925229302076,-52117.048456317,-66802.90452276522,-70828.67721661058
9179.190895460952,8576.69962366815,-49995.75614878609,-68651.63965840812,-28800.89328299681,-52100.88814507582,-66844.72463664111,-70815.28852168185
9206.907058585532,8740.515558781095,-49796.8032713894,-68450.406903077,-29513.2657305319,-51896.97318041005,-66703.64042563921,-70618.01202511931
9205.364788218116,8723.595288228427,-49779.25715199199,-68441.5556122727,-29237.959294075885,-51889.32888380634,-66645.25766912194,-70602.67872842296
9179.883799539066,8558.862931592814,-49971.23628511862,-68640.24026873593,-28478.849348884745,-52082.55971462247,-66774.80837998491,-70793.38381211566
9187.014006020308,8563.93677758417,-50003.13222445634,-68668.3587632607,-28650.33193234586,-52114.7015231492,-66847.16097678673,-70829.01249277742
9211.91384934352,8728.356209797408,-49818.48446351105,-68472.08809519865,-29432.86650572616,-51925.91868947967,-66728.76378640697,-70646.19757487746
9214.529003444792,8747.332840839963,-49754.13379122422,-68416.94634162741,-29356.468243177922,-51866.17247655064,-66633.45594804954,-70580.37168745657
9186.544619386748,8582.913408626724,-49937.17222656873,-68608.36668114265,-28574.93949829811,-52052.898949730275,-66749.9085366617,-70766.71818098048
9191.462003166915,8552.492684423052,-50011.06709373798,-68673.6114232077,-28546.30691365086,-52123.23988953113,-66840.34369472787,-70829.03484452187
9219.625201180603,8709.379578754852,-49842.512588800506,-68499.08900250065,-29319.096126448647,-51947.84575079033,-66737.14569057772,-70657.84283373867
9235.293774043772,8781.419251134306,-49729.01043045645,-68385.69860287888,-29430.787793491818,-51835.908214558156,-66614.65813096263,-70546.57584984016
9204.336607973171,8626.298144614477,-49890.188859723676,-68557.00237238436,-28658.222098138584,-52004.10509158434,-66705.62973089573,-70713.40927045456
9197.429918936483,8547.463541920608,-50014.01752400608,-68689.59292049325,-28433.497659384928,-52133.83461640294,-66831.1794795012,-70842.58000166179
9210.237468509373,8675.42727892724,-49888.91481028972,-68546.27353504581,-29161.695141994376,-51992.30337051194,-66777.87056897528,-70723.08757580371
9223.089721571174,8773.26086440812,-49746.62360508724,-68402.28359726473,-29440.153174418592,-51848.87222634223,-66644.6765237661,-70575.27548972076
9207.219983007906,8658.015269996557,-49852.30265287193,-68511.69538637345,-28723.10921229234,-51955.28888169395,-66680.46166663905,-70671.70091530096
9198.39104394806,8550.011640788513,-50003.288686667525,-68675.26545229739,-28337.586323927204,-52113.33806673742,-66810.74998506904,-70829.01249277742
9209.321046986704,8646.258252413065,-49917.18976702569,-68578.37064008364,-29009.815038420566,-52021.070065625914,-66793.20386567162,-70745.7522446814
9212.472642954903,8758.553416556528,-49757.911236037166,-68412.92302762545,-29508.46010547401,-51847.240548997,-66657.81934950582,-70573.46499841989
9219.8263668807,8691.29701749051,-49807.35329477231,-68471.7081155429,-28880.309031046516,-51900.32594207835,-66640.36263708623,-70616.22388556288
9189.271532210294,8539.17104472769,-50005.36739890187,-68672.06915284028,-28275.202605152444,-52102.8998020768,-66799.14942969673,-70817.07666123827
9193.943046801454,8605.443967037674,-49961.87090419184,-68619.58725685922,-28803.12845744234,-52054.508275331056,-66815.51090663802,-70776.73176249645
9234.869090899121,8776.21129467622,-49751.0939539783,-68405.7481176553,-29473.300811445813,-51843.574862906324,-66654.04190469289,-70575.05197227621
9223.53675646028,8723.036494617045,-49776.21731474606,-68438.51577502678,-29070.432969383357,-51877.907142389675,-66626.9739421575,-70601.80701038921
9192.668997367502,8559.377021715287,-49980.020520689555,-68642.9001263261,-28381.306336081787,-52082.55971462247,-66778.38465909775,-70795.10489643872
9194.34537820165,8585.886190639281,-49986.03313994803,-68642.74366411491,-28726.797250127467,-52079.29635993199,-66829.59250564486,-70792.42268710407
9213.120843544108,8744.293003594043,-49803.01705634798,-68449.22226062087,-29485.862491829696,-51894.02275014195,-66707.1943530076,-70608.19960930344
9216.8759366126,8742.169587870787,-49770.51761990996,-68425.44000452042,-29232.59487540661,-51867.31241551786,-66636.67459925111,-70577.57771939966
9193.205439234429,8579.27007428051,-49952.59493024289,-68607.02557647534,-28423.081746468753,-52054.418868353234,-66754.71416171959,-70767.07580889175
9189.159773488018,8562.908597339225,-50007.53551811403,-68665.09540857023,-28567.675181350136,-52114.768578382565,-66843.83056686289,-70826.57615263178
9211.399759221049,8722.567107983483,-49827.71573397109,-68476.80431327871,-29365.990086315884,-51929.96435522608,-66730.61898119676,-70642.06250215322
9220.116939558618,8763.515503825605,-49746.06481147585,-68400.04842281919,-29317.12917293658,-51850.25803449846,-66622.88357292219,-70556.74589356732
9186.388157175561,8597.151469844755,-49931.15960731025,-68598.08487869322,-28535.801593756867,-52044.561749048444,-66734.44112949862,-70746.10987259267
9190.322064199694,8556.225425747089,-50015.85036705141,-68683.84852216822,-28469.43926446906,-52125.4527122322,-66831.98414230158,-70832.47701316798
9217.501785457347,8708.083177576444,-49852.92850171668,-68501.7712118353,-29241.401462722002,-51954.43951540465,-66736.07280684386,-70658.64749653907
9230.957535619442,8782.73800405717,-49734.12897993672,-68381.96586155485,-29407.653737980574,-51835.03649652439,-66614.16639258461,-70544.74300679482
9222.73209365989,8654.61780483935,-49867.1218594458,-68528.70506390394,-28642.218249108584,-51969.23637023406,-66671.3868583902,-70678.31703165972
9196.781718347278,8551.017469289001,-50020.56658513148,-68678.97584187696,-28365.70481845198,-52120.289459263025,-66816.89671479425,-70824.92212354208
9215.601887178647,8679.472944673651,-49896.73792084908,-68547.0781978462,-29098.685574374864,-51988.41416697671,-66764.48187404656,-70698.34419469169
9238.378314778605,8793.712710584727,-49734.33014563682,-68383.15050401098,-29457.073444971258,-51821.82661555131,-66613.36172978423,-70531.98016071084
9231.225756552907,8687.541924422017,-49829.347411316325,-68492.58464486417,-28782.162521143262,-51932.9594889831,-66642.08372140929,-70635.0664061387
9202.414357950016,8555.197245502144,-50012.81052980549,-68683.7144117015,-28356.67471369204,-52119.50714820709,-66807.19605770064,-70828.00666427692
9206.348264974149,8643.173711678233,-49940.6367469593,-68602.26465490635,-28983.17175902984,-52042.84066472539,-66804.40208964373,-70761.62198324467
9230.041114096775,8779.921684255802,-49758.44767790409,-68410.28552177972,-29487.31535521929,-51861.83623812631,-66654.69010528209,-70579.58937640065
9230.935183874988,8707.81495664298,-49807.84503315032,-68470.74699053133,-28920.408060599337,-51910.94302069462,-66637.76983472942,-70622.03533912127
9204.358959717627,8555.487818180063,-50003.445148878716,-68671.84563539573,-28334.054748303268,-52104.911459077775,-66796.15429593972,-70817.83662054976
9220.765140147823,8623.66063876875,-49959.36750881285,-68619.78842255932,-28798.7475155291,-52056.654042798764,-66806.10082222233,-70773.62487001716
9239.764122934834,8772.813829519013,-49774.29506472291,-68428.77041444427,-29462.43786364053,-51868.27354052944,-66662.24499490797,-70591.61461491759
9226.487186728382,8727.171567341276,-49793.226992276555,-68448.37289433157,-29086.973260280283,-51891.049968129395,-66629.00795090293,-70614.01106286181
9207.957590574932,8573.480972466585,-49980.31109336747,-68644.5988589047,-28369.43755977602,-52078.78226980952,-66757.0610948874,-70784.59957654472
9205.878878340589,8592.368196531319,-49993.2527534071,-68650.29855374081,-28648.543792789438,-52078.82697329843,-66804.33503441037,-70783.68315502205
9230.085817585685,8758.106381667421,-49798.166727801174,-68447.2106036199,-29408.704269969974,-51878.01890111195,-66674.15847470266,-70587.79246661573
9226.710704172934,8755.692393266248,-49762.15806748367,-68422.02018761876,-29220.3461194451,-51852.82848511082,-66599.72716566648,-70555.13656796653
9193.496011912348,8583.829830149392,-49956.08180237792,-68622.06830049376,-28438.63856060965,-52050.864940984844,-66727.5567922064,-70752.48011976243
9205.364788218116,8576.900789368246,-49999.42183487676,-68661.45207422401,-28529.967788454032,-52094.070863016954,-66804.13386871027,-70801.63160581965
9224.944916360964,8733.698276722227,-49826.32992581486,-68483.2639674263,-29308.27788213228,-51914.98868644103,-66699.55005640388,-70629.94785665844
9230.44344549697,8777.30653015453,-49745.72953530902,-68408.54208571221,-29294.75507673682,-51835.77410409142,-66606.65620644763,-70552.83433828763
9225.011971594331,8638.1892726647,-49905.81272909793,-68581.23166337391,-28503.63743348568,-52006.16145207423,-66698.49952441448,-70717.87961934562
9218.01587557982,8578.510114969029,-50015.448035651214,-68689.10118211522,-28434.794060563334,-52117.60724992839,-66818.43898516166,-70830.64417012264
9230.175224563507,8716.688599191737,-49855.34249011785,-68521.41839521151,-29195.334517399613,-51947.46577113459,-66729.56844920736,-70669.75631353335
9237.663058956035,8791.969274517212,-49725.79177925489,-68374.07569576212,-29381.68101092351,-51808.86260376723,-66596.37440399818,-70536.33875087961
9227.87299488461,8668.028851512534,-49856.258911640514,-68519.09381378816,-28617.966606374575,-51944.58239609985,-66651.15852965815,-70671.2762321563
9217.166509290519,8576.274940523499,-50001.23232617764,-68668.51522547189,-28329.69615813448,-52096.663665373766,-66792.82388601589,-70822.48578339646
9245.821445682222,8716.018046858078,-49871.59220833686,-68530.53790694928,-29017.615797235467,-51959.96039628511,-66741.1019493463,-70695.79609582378
9266.720326747934,8841.813664652547,-49705.74226447848,-68365.7384950803,-29418.561389274764,-51797.664379795126,-66591.00998532891,-70529.23089614284
9255.41034405355,8741.275518092576,-49805.8557278938,-68480.15707494701,-28757.240326075596,-51909.17723288265,-66622.43653803307,-70635.17816486099
9243.16158809204,8626.14168240329,-49971.37039558535,-68647.52693742835,-28278.51066333183,-52080.503354132576,-66769.04162991543,-70809.34295765674
9260.864169700644,8726.545718496529,-49897.98961853857,-68567.46298878944,-28894.748257964642,-52005.26738229601,-66764.75009498002,-70735.58220095423
9289.139126436607,8870.647414999892,-49714.12416864922,-68379.82009408715,-29488.768218608886,-51817.35626666025,-66613.04880536185,-70544.47478586136
9285.674606046034,8807.74960610266,-49756.54777962539,-68427.4516615214,-28936.836592773987,-51859.98104333652,-66591.47937196247,-70578.40473394451
9269.111963404652,8663.178522965733,-49942.044906859985,-68613.6416928341,-28295.945024006967,-52053.323632874926,-66739.89495514572,-70771.456750805
9281.7406990219,8720.287230049042,-49910.35013322236,-68576.47074180494,-28726.126697793807,-52015.50448125655,-66764.95126068011,-70738.55498296679
9310.574449369245,8876.503572047182,-49717.78985473989,-68376.51203590776,-29412.749935716383,-51810.15900494564,-66624.80582294535,-70548.85572777459
9309.70273133549,8844.31706003154,-49717.36517159524,-68387.55379766868,-29078.032562498163,-51820.26199343944,-66580.92934857958,-70563.09378899263
9284.668777545545,8683.630369142338,-49909.52311867751,-68591.44641058998,-28333.60771341416,-52014.521004500515,-66709.02719605294,-70741.72893067944
9290.189658426007,8699.656569916793,-49930.60081369887,-68621.35304467118,-28553.481823621016,-52025.54041451698,-66764.48187404656,-70756.61519248667
9311.893202292109,8857.839865427002,-49747.5400266099,-68414.95703637088,-29270.07875085816,-51844.3348222178,-66641.0778929088,-70576.92951881046
9310.038007502319,8863.539560263105,-49702.38950281018,-68371.50524514976,-29111.38136522548,-51800.07836819629,-66560.14222623613,-70529.9461519654
9288.848553758688,8710.452462488707,-49880.957589263635,-68561.98681139789,-28384.79320821681,-51981.641588406754,-66668.61524207774,-70711.79994485377
9289.094422947695,8684.613845898371,-49944.10126734988,-68623.05177724978,-28476.21184303902,-52045.567577548936,-66760.48091178905,-70780.0621724203
9314.038969759818,8839.489083229195,-49773.73627111153,-68445.42246406346,-29272.403332281512,-51872.386261509215,-66667.02826822142,-70615.66509195151
9318.978705284442,8886.897133218901,-49683.815203167826,-68361.84929154508,-29329.936722509472,-51791.16002215863,-66563.33852569325,-70527.77803275324
9293.564771838757,8730.837253431948,-49844.63600452376,-68534.11418606213,-28555.292314921895,-51959.89334105174,-66651.35969535825,-70688.79999980927
9271.972986694931,8652.315575160454,-49967.928226939235,-68657.16053928858,-28437.18569722005,-52077.55292386448,-66779.72576376508,-70813.25451293642
9289.452050858981,8790.136431471878,-49824.85471068081,-68500.18423797897,-29223.721232857853,-51933.45122736111,-66712.02232980994,-70673.46670311294
9311.088539491719,8886.561857052071,-49680.954179877546,-68357.87068103203,-29470.864471300185,-51789.3718826022,-66576.16842701059,-70530.57200081015
9290.234361914916,8755.558282799517,-49809.18613781764,-68498.50785714482,-28731.871096118823,-51926.343372624324,-66635.44525330607,-70664.19072916398
9267.569693037236,8641.94436573319,-49965.49188679361,-68662.74847540242,-28386.536644284326,-52089.22053447015,-66783.48085683356,-70829.14660324414
9294.816469528256,8770.623358562394,-49843.80898997891,-68526.40283422504,-29115.985824583273,-51967.403527188726,-66735.73753067703,-70709.5424186638
9311.155594725084,8891.143964665409,-49679.59072346577,-68362.56454736764,-29576.09648419577,-51800.34658912976,-66592.12757255168,-70541.72552129335
9298.07982421873,8792.863344295423,-49762.94037853961,-68451.6586007665,-28954.293305193583,-51888.390110539214,-66608.89138089317,-70623.93523739997
9281.226608899427,8665.57015962245,-49938.37922076932,-68630.51725989787,-28420.354833645208,-52065.97472023663,-66752.61309774079,-70797.11655343969
9289.228533414429,8749.67977400777,-49878.67771132919,-68571.9333376805,-28974.096950780982,-51994.739710657566,-66751.98724889604,-70732.1400323081
9321.03506577433,8904.756177038691,-49680.529496732895,-68357.93773626539,-29548.156803626636,-51802.67117055311,-66592.06051731831,-70539.42329161445
9314.553059882292,8845.725219932225,-49716.47110181703,-68389.83367560312,-29024.567189761066,-51837.07050526983,-66568.54648215133,-70580.9081293235
9294.190620683506,8694.918000092268,-49908.696104132665,-68594.57565481373,-28357.054693347778,-52014.521004500515,-66712.29055074342,-70766.98640191393
9299.957370752976,8736.805169201514,-49894.726263848104,-68572.91681443654,-28799.015736462563,-51987.49774545405,-66750.86966167328,-70748.16623308256
9322.979667541942,8895.346092623007,-49702.90359293266,-68373.42749517292,-29509.488285718955,-51784.499202310944,-66609.96426462702,-70553.43783538793
9329.439321689526,8881.666825016358,-49685.40217702415,-68363.41391365694,-29178.458950335855,-51775.40204231764,-66541.14324344913,-70535.15410842349
9297.565734096257,8713.447596245718,-49887.372539922304,-68577.54362553879,-28440.359644932705,-51987.27422800949,-66681.0875154838,-70746.10987259267
9299.197411441495,8720.376637026864,-49917.01095307004,-68599.76125952737,-28674.918851246697,-52012.59875447735,-66751.78608319594,-70773.87073920616
9329.70754262299,8886.114822162965,-49722.394314097684,-68400.8977891085,-29456.849927526706,-51816.55160385986,-66616.8709536637,-70566.89358555003
9327.874699577655,8896.351921123496,-49670.0241768389,-68355.54609960868,-29355.57417339971,-51765.00848114592,-66531.46493809998,-70515.75279423628
9308.406330157082,8736.58165175696,-49844.07721091237,-68537.19872679695,-28551.7383875535,-51950.192683958136,-66639.06623590783,-70704.5356279058
9291.441356115503,8688.52540117805,-49937.39574401328,-68632.50656515438,-28554.55470735487,-52032.93884193168,-66751.78608319594,-70792.93677722654
9326.578298399247,8854.80002818108,-49758.62649185974,-68446.83062396415,-29346.09703375066,-51846.14531351868,-66641.45787256454,-70602.7681354008
9337.84357760472,8916.893174277922,-49651.87456034119,-68336.70357903285,-29399.070668109736,-51738.94634711103,-66519.61851353866,-70492.41757302494
9321.37034194116,8774.31139639752,-49801.96652435858,-68500.18423797897,-28601.26985326646,-51897.5990292548,-66600.35301451123,-70650.82438597971
9302.013731242863,8690.447651201208,-49934.37825851182,-68641.71548386998,-28425.875714525668,-52031.86595819783,-66735.08933008782,-70787.50530332391
9321.325638452248,8826.502719700662,-49793.11523355427,-68494.03750825376,-29169.562956042646,-51881.997511625,-66665.44129436508,-70639.8720311966
9326.46653967697,8908.354807895996,-49667.05139482635,-68362.05045724518,-29467.73522707644,-51747.23884430395,-66540.6515050711,-70506.76739296525
9309.27804819084,8781.016919734111,-49787.750814885,-68495.71388908791,-28740.275352034016,-51881.28225580243,-66591.1217440512,-70634.48526078288
9302.55017310979,8680.255255729588,-49933.05950558895,-68644.46474843798,-28371.29275456581,-52028.3790860628,-66725.23221078304,-70784.1078381667
9331.495682179413,8803.480422911694,-49822.19485309063,-68525.95579933593,-29067.527242604167,-51911.07713116135,-66682.42862015113,-70672.8855577571
9353.936833612543,8937.322668710074,-49653.30507198633,-68358.00479149877,-29516.238512544456,-51736.04062033184,-66527.03929269782,-70497.2902533162
9333.283821735839,8839.578490207015,-49738.71108755006,-68449.98221993235,-28890.926109662785,-51830.81201682235,-66542.12672020515,-70583.94796656942
9314.41894941556,8703.121090307366,-49915.96042108064,-68634.2500012219,-28330.858448846157,-52012.01760912152,-66687.5918731203,-70764.81828270177
9325.550118154302,8779.251131922143,-49864.77492627799,-68568.69233473449,-28852.324646988473,-51951.53378862546,-66704.33332971732,-70711.21879949795
9348.483007965448,8928.493729650227,-49678.09315658727,-68373.44984691737,-29475.737151591442,-51759.64406247665,-66562.93619429306,-70524.40291934049
9341.822188117765,8872.055574900576,-49712.22427037052,-68414.53235322623,-29045.80134699361,-51796.21151640553,-66540.4056358821,-70555.0024574998
9323.784330342332,8719.996657371123,-49904.76219710853,-68614.22283818995,-28370.398684787597,-51992.079853067386,-66685.22258820804,-70737.45974748848
9322.376170441648,8753.792494987547,-49903.197574996666,-68607.941997998,-28714.168514510216,-51982.60271341833,-66732.76474866447,-70738.35381726669
9348.66182192109,8914.43448238784,-49709.98909592499,-68402.75298389829,-29433.78292724883,-51781.52642029839,-66599.19072379956,-70549.68274231943
9355.009717346396,8903.504479349194,-49681.06593859982,-68378.43428593091,-29183.15281667147,-51747.2164925595,-66528.71567353197,-70519.73140474933
9326.891222821621,8741.387276814852,-49873.71562406011,-68583.06450641925,-28437.230400708962,-51942.05664897641,-66658.42284660612,-70717.45493620097
9331.339219968226,8743.622451260382,-49906.43857794268,-68610.73596605491,-28618.927731386153,-51972.47737318008,-66722.9970363375,-70734.48696547592
9349.42178123257,8898.631799057937,-49728.56339556735,-68427.8986964105,-29404.815066434752,-51795.272743138405,-66610.00896811593,-70551.2026609424
9348.304194009805,8921.989372013733,-49666.49260121496,-68365.24675670228,-29351.28263846429,-51738.499312221924,-66520.82550773925,-70491.52350324673
9338.961164827486,8774.803134775537,-49831.247309595026,-68534.85179362915,-28539.757852525458,-51910.04895091641,-66615.5745524853,-70657.66401978303
9332.836786846732,8727.663305719294,-49924.230566529106,-68627.54447788531,-28475.049552327342,-51998.56185895942,-66724.62871368275,-70749.90966915007
9352.819246389776,8879.65516801538,-49761.93455003912,-68455.65956302399,-29234.584180663132,-51830.14146448868,-66631.19842185956,-70587.61365266009
9370.700641954023,8958.422715475883,-49639.29052821285,-68336.45770984385,-29334.921161523005,-51711.78897759783,-66499.27842608433,-70467.36126749055
9346.091371308728,8809.560097403539,-49792.24351552052,-68496.38444142157,-28551.0901869643,-51875.20258131059,-66583.92448233659,-70623.17527808849
9329.484025178435,8718.610849214894,-49927.516272964036,-68631.16546048707,-28329.22677150092,-52013.15754808874,-66716.31386474536,-70759.47621577694
9360.485894737947,8865.28299633062,-49780.17357351465,-68476.82666502317,-29093.09763826104,-51865.90425561718,-66637.97100042952,-70610.30067328223
9369.89597915363,8961.82018063309,-49640.16224624661,-68339.1846226674,-29418.136706130113,-51724.596527170725,-66503.63701625312,-70467.9871163353
9341.50926369539,8831.88949011439,-49761.822791316845,-68475.68672605595,-28720.181133768696,-51850.77212462093,-66559.5610808803,-70591.81578061769
9330.087522278729,8720.823671915969,-49917.234470514595,-68622.40357666058,-28283.69626804546,-51997.71249267012,-66699.30418721488,-70750.11083485017
9346.091371308728,8826.167443533832,-49824.38532404725,-68522.82655511219,-28905.521798792102,-51887.31722680536,-66673.68908806909,-70657.59696454967
9358.206016803506,8952.566558428593,-49657.99893832194,-68355.18847169739,-29401.6411187221,-51712.638343887134,-66530.83908925523,-70489.10951484555
9354.965013857487,8875.609502268971,-49714.79472098288,-68426.04350162072,-28806.503570855093,-51788.209591890525,-66525.98876070842,-70548.83337603013
9338.692943894022,8734.63704998935,-49892.51344114703,-68613.194657945,-28215.076412567665,-51976.43363194867,-66670.24691942298,-70735.11281432067
9341.33044973975,8799.12183274291,-49854.7166412731,-68567.0830091337,-28728.92066585072,-51932.020715715975,-66692.10692550027,-70697.71834584694
9367.146714585628,8954.757029385213,-49660.41292672312,-68362.16221596744,-29386.263118536845,-51734.92303310907,-66541.29970566032,-70490.27180555723
9360.441191249036,8905.158508438886,-49676.327368775295,-68383.79870460018,-28977.40500896037,-51754.90549265212,-66503.05587089728,-70497.15614284946
9352.729839411955,8762.867303236402,-49848.72637375908,-68567.23947134489,-28278.98004996539,-51942.90601526571,-66627.64449449116,-70680.932185761
9352.260452778393,8788.50475412664,-49857.331795374375,-68568.35705856765,-28609.316481270373,-51946.41523914519,-66684.66379459665,-70693.87384580063
9379.149601358129,8952.231282261764,-49662.35752849073,-68362.29632643418,-29345.51588839482,-51732.37493424117,-66540.91972600458,-70489.2883288012
9382.994101404442,8946.196311258831,-49632.58500487626,-68340.61513431254,-29109.74968788024,-51712.23601248694,-66469.75177165888,-70466.60130817906
9353.66861267908,8779.742870300159,-49833.683649740655,-68555.72832295041,-28361.927373639035,-51938.70388730811,-66616.55802924134,-70689.73877307639
9343.587975929735,8763.962538714712,-49889.54065913447,-68608.7913642873,-28520.758869738445,-51981.68629189567,-66705.00388205098,-70736.78919515481
9358.362479014693,8915.23914518823,-49711.17373838112,-68421.48374575183,-29290.88822494605,-51787.784908745874,-66588.216017272,-70536.0034747128
9367.861970408198,8947.760933370702,-49630.30512694182,-68339.27402964521,-29245.22361102386,-51712.68304737605,-66482.0452311093,-70453.57024116162
9344.906728852598,8786.090765725467,-49794.34457949932,-68517.90917133202,-28459.850366097733,-51891.78757569642,-66575.07319153228,-70624.40462403353
9330.75807461239,8729.63025923136,-49897.20730748264,-68617.06150973577,-28386.62605126215,-51995.54437345796,-66691.36931793325,-70726.70855840547
9352.215749289484,8882.918522705857,-49740.499227106484,-68451.74800774432,-29176.96138345735,-51832.26488021194,-66608.89138089317,-70565.03839076024
9367.884322152653,8961.216683532797,-49616.24587967943,-68333.61903829801,-29347.773414584808,-51714.94057356603,-66478.82657990773,-70436.04647350866
9354.115647568184,8828.22380402372,-49757.151276725686,-68482.14638020353,-28597.76062938698,-51858.52817994692,-66548.38520865265,-70577.1083327661
9340.436379961537,8736.469893034684,-49895.24035397057,-68623.87879179463,-28348.13634731011,-51990.93991410016,-66682.60743410676,-70716.53851467831
9360.597653460223,8866.981728909223,-49768.37185244225,-68479.0171359798,-29067.147262948427,-51858.50582820247,-66628.35975031373,-70594.4085829745
9376.199171090027,8974.180695316874,-49612.1108069552,-68331.2721051302,-29432.26300862587,-51700.94838153701,-66484.25805381036,-70437.0299502647
9361.983461616452,8862.824304440535,-49708.51388079094,-68437.82287094866,-28742.89050613529,-51812.9306212581,-66511.7954029793,-70533.3436171226
9348.550063198812,8746.528178039573,-49871.25693217003,-68603.5387043403,-28250.950962418436,-51976.61244590431,-66652.4325790921,-70705.07206977274
9357.267243536382,8836.9856878502,-49794.32222775486,-68517.01510155381,-28837.974827048165,-51897.979008910545,-66637.83688996278,-70622.81765017721
9371.751173943421,8967.229302791275,-49622.8619960382,-68339.13991917849,-29375.802502131763,-51721.020248057874,-66492.90817891457,-70442.77434858971
9358.787162159344,8888.975845453244,-49682.8764299007,-68412.81126890317,-28814.393736647817,-51787.315522112316,-66489.91304515756,-70508.1979046104
9337.70946713799,8742.549567526528,-49871.9721879926,-68607.40555613108,-28208.10266829761,-51981.35101572884,-66639.82619521931,-70694.23147371192
9347.141903298128,8802.720463600215,-49839.89743469923,-68549.04515135827,-28688.374601408792,-51935.865215762286,-66667.89998625517,-70655.04886568176
9382.457659537515,8966.759916157713,-49636.72007760049,-68343.90084074746,-29337.983350513383,-51734.40894298661,-66509.6496355116,-70454.55371791765
9372.958168144009,8923.106959236498,-49649.97466206249,-68363.25745144575,-28899.03979290006,-51752.02211761739,-66461.10164655467,-70467.94241284639
9348.974746343463,8762.35321311393,-49843.07138241189,-68565.36192481064,-28178.128978983044,-51946.6611083342,-66602.29761627884,-70662.26847914082
9358.764810414888,8789.242361693665,-49845.59712953534,-68558.87991891861,-28466.82411036779,-51943.39775364372,-66652.45493083655,-70667.14115943208
9386.123345628184,8958.10979105351,-49653.01449930841,-68361.02227700023,-29208.83497105062,-51747.06003034831,-66523.64182754062,-70475.11732281653
9382.681176982067,8953.34886948453,-49616.067065723786,-68331.85325048605,-28999.22031154875,-51720.3049922353,-66453.45734995096,-70441.36618868902
9352.439266734036,8783.632073835382,-49808.448530250615,-68536.61758144113,-28197.1056100256,-51925.33754412384,-66582.33750848025,-70641.7719294753
9355.590862702235,8767.73998352766,-49860.97512972059,-68588.27246287733,-28285.93144249099,-51981.48512619557,-66667.74352404398,-70702.52397090483
9379.32841531377,8928.806654072601,-49685.40217702415,-68403.8482193766,-29085.47569340178,-51799.743092029465,-66563.47263615998,-70524.2464571293
9394.058214909819,8979.723927941792,-49590.67548402256,-68308.85330544155,-29099.91492031991,-51703.764701338376,-66448.11528302614,-70429.38565366098
9364.084525595252,8818.523146930116,-49762.51569539496,-68491.53411287477,-28323.147097009078,-51875.33669177732,-66549.94983076451,-70601.47173422239
9355.009717346396,8761.526198569083,-49866.831286767876,-68598.06252694876,-28228.82273540768,-51986.2236960201,-66666.96121298806,-70706.25671222886
9378.747269957932,8911.685217819837,-49713.54302329338,-68442.04735065071,-29000.15908481587,-51832.0860662563,-66583.8127236143,-70551.31441966468
9391.152488130629,8989.558695502126,-49587.30037060981,-68314.68711074437,-29211.53953212971,-51690.64422734312,-66457.03362906381,-70423.68595882488
9372.399374532626,8852.430743268818,-49722.059037930856,-68454.43021707896,-28461.01265680941,-51841.22792973852,-66514.92464720305,-70557.41644590098
9369.650109964623,8764.208407903721,-49854.604882550826,-68592.63105304612,-28151.15042342549,-51977.68532963817,-66635.02057016142,-70689.17997946501
9370.834752420755,8869.194551610297,-49750.60221560028,-68483.2639674263,-28828.162411232282,-51861.3892032372,-66600.01773834441,-70576.23661473235
9383.888171182654,8986.16123034492,-49585.98161768694,-68313.3236543326,-29247.83876512513,-51694.77930006735,-66459.13469304261,-70415.41581337641
9362.586958716745,8876.682386002825,-49680.68595894408,-68422.02018761876,-28594.318460740862,-51792.99286520397,-66483.72161194345,-70511.70712848987
9342.716257895978,8746.751695484125,-49848.301690614426,-68597.66019554857,-28100.009632111745,-51956.67468985018,-66621.94479965506,-70682.87678752861
9357.714278425488,8836.51630121664,-49775.256189734486,-68509.05788052772,-28691.593252610357,-51877.214238311564,-66615.32868329629,-70607.39494650305
9380.423650792081,8977.10877384052,-49601.06904519428,-68335.1836604099,-29247.101157558103,-51703.51883214937,-66478.80422816328,-70435.68884559737
9362.318737783282,8894.496726333706,-49642.30801371432,-68394.70635589438,-28743.82927940241,-51760.180504343574,-66461.66044016606,-70479.72178217433
9314.620115115657,8717.96264862569,-49831.53788227295,-68569.11701787914,-28116.527571264218,-51954.37246017128,-66608.55610472633,-70669.44338911098
9310.328580180238,8759.291024123553,-49803.79936740391,-68543.680732689,-28551.783091042413,-51916.79917774191,-66633.90298293866,-70642.95657193144
9316.050626760796,8886.897133218901,-49620.24684193693,-68360.44113164439,-29243.390767978522,-51717.108692778194,-66494.2939870708,-70450.01631379322
9289.116774692151,8832.9847255927,-49624.940708272545,-68360.37407641103,-28903.331327835484,-51716.706361378005,-66450.77514061632,-70453.86081383954
9243.094532858675,8652.829665282925,-49816.96454488809,-68563.32791606522,-28159.10764445158,-51920.062532432385,-66588.8195143723,-70653.46189182543
9228.25297454035,8645.297127401487,-49834.9129956857,-68578.77297148384,-28429.921380272077,-51937.38513438525,-66648.16339590114,-70674.13725544659
9227.224794295405,8774.0208237196,-49647.046583538846,-68372.44401841689,-29202.6435378365,-51737.20291104352,-66517.98683619342,-70480.61585195253
9203.91192482852,8746.863454206403,-49603.86301325119,-68346.1807186819,-29020.74504145921,-51701.5518786373,-66438.74990209937,-70436.40410141995
9164.215226675895,8574.50915271153,-49783.28046599394,-68543.2784012888,-28239.663331468506,-51892.3463693078,-66553.459054644,-70620.89540015404
9131.246403604318,8496.2556953735,-49849.95571970412,-68595.53677982531,-28315.79337308328,-51954.37246017128,-66642.95543944305,-70686.56482536373
9141.595261287124,8609.422577550718,-49679.054281598845,-68420.5002689958,-29084.447513156836,-51782.19697263205,-66544.13837720614,-70516.87038145906
9130.7546652263,8677.640101628316,-49596.44223409203,-68353.24386992978,-29115.628196671987,-51702.46830015997,-66447.82471034821,-70439.60040087705
9083.547780936693,8499.072015174868,-49764.46029716257,-68532.54956395025,-28321.716585363938,-51878.91297089017,-66545.07715047325,-70614.79337391775
9040.364210649039,8395.315217413332,-49866.38425187877,-68625.08578599522,-28162.460406119873,-51978.33353022737,-66655.74063727149,-70722.39467172559
9077.781030867223,8525.558832354407,-49709.74322673598,-68474.47973185536,-28926.554790324546,-51824.844101052775,-66570.37932519667,-70570.84984431861
9100.75862416728,8623.772397491026,-49575.00691115939,-68327.874639973,-29179.4871305808,-51684.60925634018,-66432.53611714079,-70434.30303744115
9063.386507438005,8467.645462470706,-49719.86856697423,-68479.911205758,-28486.337183277272,-51837.40578143666,-66507.36975757715,-70586.29489973723
9027.556661076149,8346.901338923137,-49861.936254732165,-68627.43271916303,-28166.66253407747,-51981.48512619557,-66639.49091905248,-70735.06811083175
9029.769483777223,8479.15661086519,-49749.61873884425,-68509.39315669455,-28846.66965564128,-51862.97617709353,-66599.86127613322,-70628.38323454658
9029.523614588215,8550.145751255244,-49584.41699557508,-68338.379959867,-29265.675457200465,-51695.11457623418,-66454.0384953068,-70462.04155231018
8978.20400931883,8405.865240796238,-49688.82199392581,-68459.95109795942,-28633.94810366012,-51800.70421704104,-66488.1919608345,-70562.57969887015
8994.409024048928,8334.36201028371,-49855.58835930686,-68634.58527738873,-28156.2466211613,-51975.42780344818,-66631.01960790392,-70728.56375319527
8989.0222536352,8399.629104093206,-49781.22410550405,-68541.423206499,-28728.67479666171,-51894.55919200888,-66616.58038098579,-70643.64947600955
8980.796811675646,8518.54038459544,-49620.470359381485,-68382.05526853267,-29299.963033194905,-51726.78699812735,-66491.76823994736,-70475.07261932762
8991.637407736469,8470.394727038709,-49653.93092083108,-68426.24466732082,-28792.913710226265,-51766.23782709096,-66468.05303908027,-70503.16876210795
8967.609282447014,8310.803271627818,-49836.209396864106,-68608.92547475404,-28139.929847708925,-51948.449247890625,-66603.81753490181,-70681.17805495001
8946.889215336945,8325.868347390693,-49826.44168453714,-68597.79430601529,-28571.340867440806,-51931.43957036013,-66637.45691030704,-70653.17131914751
9004.690826498369,8536.712352837605,-49621.789112304345,-68389.20782675837,-29285.27793708777,-51727.882233605655,-66488.37077479015,-70441.43324392238
8959.54030269865,8477.055546886391,-49610.613240076695,-68379.55187315367,-28963.099892508973,-51704.77052983887,-66427.03758800478,-70417.33806339957
8890.831040243034,8286.708091104996,-49821.256079823506,-68591.24524488988,-28234.433023265963,-51916.03921843043,-66575.09554327674,-70612.89347563905
8933.791093086134,8302.108443034702,-49850.67097552669,-68615.92157076855,-28484.526691976393,-51950.10327698032,-66642.26253536493,-70643.78358647627
8948.073857793077,8463.018651368458,-49674.00278735194,-68417.81805966116,-29288.764809222797,-51751.6644897061,-66522.07720542875,-70450.77627310471
8919.374217912462,8450.76989540695,-49627.98054551847,-68360.5305386222,-29175.10618866756,-51686.30798891879,-66434.21249797494,-70374.40036230092
8901.67163630386,8282.729480591952,-49819.490292011535,-68561.27155557532,-28366.53183299683,-51880.20937206857,-66548.42991214155,-70558.13170172354
8907.281924162142,8236.237852124912,-49911.91475533423,-68648.91274558459,-28366.598888230194,-51972.790297602456,-66656.6794105386,-70644.63295276558
8930.795959329123,8394.823479035316,-49734.19603517008,-68463.10269392762,-29145.981865642294,-51793.43990009307,-66543.7583975504,-70447.93760155888
8925.923279037866,8456.022555353948,-49635.781304333366,-68364.6879630909,-29247.168212791472,-51688.99019825342,-66429.07159675022,-70327.50640243369
8888.528810564138,8275.711032832985,-49796.11036731129,-68535.61175294063,-28467.0699795568,-51861.3892032372,-66516.51162105938,-70487.8354654116
8861.03616488411,8137.554900354732,-49921.97304033912,-68646.27523973885,-28264.607878280625,-51979.696986639145,-66644.31889585483,-70609.74187967085
8915.909697521889,8322.783806655862,-49789.13662304123,-68505.28043571478,-29007.512808741667,-51826.229909209,-66587.14313353815,-70472.36805824852
8884.61725528446,8378.082022438291,-49647.49361842795,-68365.76084682475,-29306.400335598035,-51695.33809367873,-66457.25714650836,-70350.08166433354
8854.129475847421,8201.48088949691,-49763.3427099398,-68487.60020585063,-28575.31947795385,-51826.453426653556,-66498.09378362821,-70474.80439839416
8856.31994680404,8080.692062460431,-49927.00218284156,-68655.68532415455,-28165.52259511025,-51988.90590535473,-66641.59198303128,-70617.74380418585
8886.405394840884,8214.847232681184,-49820.6078792343,-68541.33379952119,-28811.867989524366,-51863.154991049174,-66603.10227907923,-70486.38260202201
8902.498650848705,8322.448530489031,-49647.7171358725,-68370.34295443809,-29245.82710812415,-51692.030035499345,-66453.34559122867,-70301.17604746534
8853.213054324753,8183.5547904437535,-49739.98513698401,-68470.8140457647,-28642.888801442245,-51795.853888494246,-66475.7867426618,-70392.43822007635
8845.03231585411,8009.479404625822,-49914.21698501313,-68649.0021525624,-28125.55767602416,-51976.903018582234,-66615.10516585174,-70567.6088413726
8850.41908626784,8097.768795224285,-49846.49119931355,-68573.27444234783,-28681.803188538932,-51905.109215391785,-66606.65620644763,-70493.91513990345
8874.76013597967,8227.163043876059,-49650.28758648486,-68376.46733241885,-29274.325582304667,-51712.21366074248,-66450.0375330493,-70300.46079164276
8852.676612457826,8133.553938097231,-49691.19127883807,-68428.07751036614,-28779.972050186643,-51766.79662070234,-66435.55360264225,-70350.57340271157
8804.665065367826,7946.916871895418,-49890.01004576803,-68632.73008259894,-28097.729754177304,-51966.062422521405,-66576.54840666633,-70541.9490387379
8839.913766373846,8005.67960806842,-49869.51349610252,-68607.15968694206,-28480.749247163447,-51941.810779787396,-66608.37729077069,-70521.98893093932
8833.789388393092,8151.748258083851,-49678.83076415429,-68409.88319037952,-29186.147950428483,-51735.10184706472,-66465.79551289028,-70328.93691407883
8825.563946433538,8099.288713847246,-49668.571313449305,-68412.83362064762,-28893.653022486335,-51733.49252146394,-66403.5682563267,-70317.40341393989
8796.573733875006,7921.100607049538,-49860.751612276035,-68606.62324507514,-28145.249562889287,-51939.508550108505,-66534.25890615689,-70516.51275354777
8798.160707731331,7939.741961925264,-49907.28794423198,-68645.09059728273,-28333.004216313868,-51965.25775972102,-66616.28980830786,-70565.77599832726
8811.862327082436,8090.325664320668,-49720.11443616324,-68451.97152518887,-29109.28030124668,-51774.932655684075,-66492.7964201923,-70378.40132455842
8824.736931888692,8113.906754721017,-49652.88038884168,-68394.57224542764,-29025.30479732809,-51718.18157651205,-66391.02892768728,-70316.50934416168
8784.92847501379,7929.61662168701,-49828.453341538116,-68582.95274769697,-28206.091011296634,-51902.89639269071,-66491.67883296953,-70499.10074461708
8760.050983435034,7848.5021410587005,-49914.68637164669,-68672.27031854038,-28161.298115408197,-51995.7231874136,-66599.92833136658,-70603.43868773445
8788.996492504655,8013.748587816786,-49748.188227199105,-68505.66041537051,-28959.434206418304,-51826.40872316465,-66506.07335639875,-70442.26025846723
8813.538707916583,8075.5511612357095,-49631.802693820326,-68389.61015815857,-29094.014059783705,-51712.95126830951,-66375.80738971321,-70321.62789364194
8777.887675510368,7923.000505328239,-49775.18913450112,-68547.0781978462,-28342.816632129747,-51862.797363137885,-66439.48750966639,-70452.94439231687
8767.717631783204,7854.537112061634,-49894.14511849226,-68671.24213829543,-28107.810390926647,-51981.97686457358,-66560.2092814695,-70579.11998976707
8802.40753917784,7989.116965427038,-49758.8947127932,-68524.68174990198,-28847.809594608498,-51836.77993259191,-66495.52333301584,-70446.66355212493
8812.93521081629,8085.050652629216,-49614.54714710083,-68382.07762027712,-29182.817540504642,-51694.91341053408,-66357.52366274878,-70298.56089336406
8785.353158158441,7947.207444573337,-49738.57697708333,-68516.18808700897,-28497.6248142272,-51831.99665927848,-66407.03277671729,-70430.54794437265
8763.247282892142,7829.793730949609,-49899.55424065045,-68682.41801052309,-28082.530567947695,-51987.67655940969,-66548.54167086384,-70598.92363535448
8779.094669710956,7938.803188658141,-49798.99374234602,-68580.22583487342,-28712.335671464883,-51876.25311329999,-66515.97517919245,-70493.71397420335
8799.188887976276,8070.007928610794,-49630.126312986176,-68416.92398988295,-29203.090572725603,-51708.9056025631,-66374.28747109025,-70328.1546030229
8788.728271571192,7984.087822924594,-49702.054226643355,-68502.03943276875,-28630.43887978064,-51793.5740105598,-66380.79182872675,-70407.79386851715
8768.25407365013,7849.351507348002,-49891.90994404673,-68706.22261836799,-28065.632649139483,-51991.90103911174,-66533.72246428997,-70593.64862366303
8779.36289064442,7924.654534417932,-49834.68947824115,-68632.90889655458,-28560.36616091325,-51935.52993959546,-66540.6068015822,-70547.93930625192
8793.869172795912,8061.313100017679,-49639.9163770576,-68439.74512097181,-29210.131372229025,-51734.028963330864,-66386.71504100741,-70347.31004802109
8796.774899575103,8025.818529822652,-49651.40517370763,-68461.87334798258,-28803.597844075903,-51753.16205658461,-66342.52564221926,-70358.41886501538
8782.335672656975,7887.885914788952,-49846.78177199147,-68663.97782134746,-28111.1855043394,-51955.311233438406,-66490.4941905134,-70567.78765532824
8793.086861739977,7945.0616771056275,-49857.68942328566,-68665.96712660398,-28459.716255631003,-51958.35107068432,-66554.93426977805,-70591.07817305067
8821.987667320689,8153.894025551561,-49672.125240817695,-68474.658545811,-29219.563808389164,-51766.46134453551,-66418.78979430077,-70403.9717202153
8827.240327267686,8204.207802320458,-49656.94840633254,-68467.12600792958,-28973.851081591976,-51754.88314090767,-66354.64028771405,-70399.30020562414
8826.83799586749,8096.070062645682,-49855.70011802913,-68677.12064708718,-28189.506016910796,-51954.01483226,-66487.45435326747,-70612.04410934975
8850.977879879223,8133.665696819508,-49918.10618854835,-68737.15743269413,-28333.719472136436,-52011.14589108776,-66583.1198195362,-70685.02255499632
8889.154659408887,8332.08213234927,-49736.587671826805,-68546.8323286572,-29122.311368264123,-51815.52342361491,-66462.37569598862,-70513.07058490165
8890.026377442644,8366.41441183262,-49653.52858943088,-68467.32717362967,-29079.75364682122,-51733.827797630765,-66351.33222953466,-70438.54986888765
8865.99825215319,8199.379825518112,-49825.81583569239,-68654.74655088742,-28278.890642987568,-51912.41823582867,-66454.93256508501,-70616.4697547519
8899.861145002978,8146.964984770416,-49906.0809500314,-68725.66863604411,-28202.20180776141,-51988.302408254436,-66555.53776687835,-70700.10998250365
8948.163264770898,8289.502059161909,-49752.27859643443,-68558.00820088485,-29028.054061896095,-51817.646839338166,-66471.65166993758,-70545.48061436185
8979.522762241693,8371.600016546252,-49637.56944388979,-68439.92393492746,-29205.817485549152,-51696.56743962377,-66357.38955228205,-70426.92696177089
8976.39351801795,8239.992945193404,-49787.39318697371,-68588.47362857743,-28439.19735422103,-51860.83040962582,-66441.92384981201,-70584.48440843636
8990.743337958258,8168.690880380975,-49925.39285724078,-68718.56078130731,-28172.786912058225,-51996.99723684755,-66569.03822052934,-70720.80769786927
9026.886108742488,8316.79353914184,-49809.45435875111,-68588.63009078862,-28892.803656197033,-51872.11804057575,-66524.51354557437,-70593.87214110758
9065.889902817,8448.579424450329,-49656.970758077,-68424.88121090904,-29260.46750074238,-51712.97362005396,-66389.8219334867,-70429.49741238325
9072.416612197949,8366.727336254995,-49749.79755279989,-68528.39213948157,-28569.105692995276,-51812.729455558,-66410.25142791885,-70534.19298341191
9065.353460950073,8269.49724787441,-49920.31901124943,-68706.17791487908,-28092.633556441495,-51992.75040540104,-66558.0635140018,-70717.83491585671
9088.867496117056,8385.838077764283,-49840.83620796636,-68609.55132359879,-28708.222950485106,-51898.35898856628,-66545.68064757355,-70640.676693997
9136.834339718145,8552.984422801068,-49651.583987663274,-68407.67036767845,-29235.41119520798,-51699.38375942514,-66380.8141804712,-70442.90845905643
9147.250252634318,8505.822242000371,-49703.57414526631,-68463.86265323909,-28678.383371637272,-51759.688765965555,-66363.02219188478,-70495.4350585264
9138.7565897413,8384.474621352509,-49891.90994404673,-68655.1041787987,-28065.342076461566,-51945.923500767174,-66515.03640592533,-70694.29852894528
9154.402810860016,8464.851494413793,-49861.13159193177,-68611.92060851105,-28568.56925112835,-51891.87698267424,-66543.44547312803,-70666.80588326525
9191.886686311565,8640.022115710035,-49667.16315354862,-68403.2447222763,-29224.101212513593,-51689.996026753906,-66392.99588119936,-70465.46136921184
9205.476546940392,8624.331191102408,-49673.42164199611,-68412.07366133615,-28803.106105697883,-51697.17093672406,-66347.97946786636,-70483.02984035372
9199.285113726273,8491.271256359965,-49858.650548297235,-68606.62324507514,-28066.21379449532,-51886.93724714962,-66485.12977184412,-70687.32478467522
9236.612526966635,8554.616100146306,-49846.267681868994,-68587.66896577703,-28349.18687929951,-51878.42123251215,-66520.73610076142,-70675.90304325856
9269.246073871383,8728.892651664335,-49655.987281320966,-68385.65389938997,-29084.67103060139,-51673.38868062362,-66390.00074744233,-70474.91615711643
9268.620225026634,8731.887785421346,-49624.82894955027,-68364.6879630909,-28866.361542506405,-51640.17398836303,-66327.14764203402,-70451.82680509411
9251.476437029414,8582.242856293065,-49810.77311167397,-68556.91296540653,-28091.158341307444,-51829.9850022775,-66453.72557088442,-70646.39874057756
9273.247036128883,8591.563533730929,-49860.23752215356,-68588.96536695545,-28217.66921492448,-51872.58742720931,-66535.30943814629,-70701.85341857118
9313.211955214972,8771.78564927407,-49679.188392065575,-68401.18836178641,-29000.315547027058,-51686.218581940964,-66422.29901818026,-70531.644884544
9312.250830203395,8805.425024679307,-49603.37127487317,-68331.89795397496,-28968.620773389433,-51611.11672057113,-66327.99700832332,-70458.5323284307
9310.015655757863,8672.074517258945,-49754.51377087996,-68493.72458383138,-28166.86369977757,-51766.03666139086,-66410.9219802525,-70600.75647839981
9314.687170349023,8629.85207198287,-49855.3201383734,-68596.25203564788,-28068.158396262934,-51859.936339847605,-66523.68653102953,-70705.83202908421
9338.201205516007,8782.425079634795,-49706.54692727887,-68439.8568796941,-28850.04476905403,-51707.609201384694,-66447.64589639258,-70562.64675410352
9339.385847972137,8852.207225824264,-49593.89413522412,-68327.94169520638,-29032.479707298247,-51592.92240058451,-66333.27202001477,-70456.65478189645
9324.32077220926,8725.696352207226,-49729.658631045655,-68473.8091795217,-28284.70209654595,-51735.41477148709,-66404.32821563819,-70602.5669697007
9322.778501841844,8641.966717477646,-49868.574722835394,-68606.80205903079,-28011.943758957837,-51875.806078410875,-66545.97122025148,-70755.72112270846
9353.154522556606,8777.440640621262,-49742.33207015182,-68475.4632086114,-28713.229741243096,-51742.924957624076,-66486.82850442272,-70630.48429852538
9361.223502304972,8884.460793073273,-49596.44223409203,-68332.881430731,-29091.84594057154,-51592.72123488441,-66352.27100280178,-70469.90936635845
9339.587013672235,8773.59614057495,-49698.74616846397,-68429.5527255002,-28427.082708726255,-51695.80748031229,-66388.79375324176,-70566.7594750833
9326.779464099343,8654.215473439155,-49864.99844372254,-68604.47747760743,-27927.498868405684,-51868.541761462904,-66538.05870271429,-70742.77946266884
9355.52380746887,8760.632128790872,-49774.13860251172,-68509.9743020504,-28536.293332134883,-51771.378728315685,-66514.7458332474,-70657.86518548313
9375.349804800726,8901.38106362594,-49592.15069915661,-68327.51701206173,-29097.925615063385,-51588.429699948996,-66367.26902333129,-70466.75777039025
9366.252644807417,8829.587260435494,-49644.096153270744,-68384.84923658958,-28594.720792141055,-51636.374191805626,-66359.5129680053,-70509.11432613306
9346.069019564275,8682.15515400829,-49835.98587941955,-68582.12573315212,-27971.576508471553,-51829.76148483295,-66507.5485715328,-70702.50161916038
9350.047630077319,8735.553471512017,-49813.12004484177,-68550.4309595145,-28402.562845058783,-51797.82084200631,-66538.28222015884,-70674.13725544659
9380.155429858618,8899.034130458132,-49613.697780811526,-68343.74437853627,-29089.878987059474,-51585.412214447526,-66382.2670438608,-70471.94337510387
9372.444078021535,8860.924406161834,-49621.319725670786,-68364.41974215744,-28756.79329118649,-51610.848499637665,-66338.79290089523,-70487.99192762279
9351.209920788995,8702.741110651627,-49815.91401289869,-68565.20546259945,-28032.775584790183,-51826.40872316465,-66482.67107995405,-70689.15762772056
9352.483970222947,8717.403855014307,-49839.74097248805,-68580.22583487342,-28293.665146072526,-51839.86447332674,-66551.22388019846,-70708.11190701865
9375.975653645475,8879.85633371548,-49649.59468240675,-68385.00569880077,-29047.36596910548,-51644.17495062053,-66423.26014319183,-70519.66434951597
9385.922179928086,8897.223639157253,-49593.24593463492,-68333.55198306465,-28867.702647173723,-51600.20906927694,-66333.96492409288,-70470.80343613666
9370.834752420755,8745.768218728092,-49768.17068674215,-68517.35037772065,-28077.36731497852,-51792.03174019239,-66434.41366367503,-70656.79230174927
9376.355633301215,8728.445616775229,-49828.945079916135,-68576.06841040474,-28152.066844948156,-51855.64480491219,-66503.30174008629,-70727.26735201685
9401.970732446996,8885.108993662476,-49654.087383042264,-68398.50615245178,-28927.8288397585,-51684.07281447325,-66391.02892768728,-70556.23180344484
9409.637380795168,8936.070971020576,-49562.13230635313,-68311.78138396518,-28968.084331522507,-51600.8796216106,-66279.47137111085,-70467.60713667955
9392.448889309037,8789.73410007168,-49730.06096244585,-68484.15803720451,-28178.039572005222,-51783.26985636591,-66373.54986352324,-70643.00127542035
9381.496534525935,8721.851852160913,-49850.84978948233,-68606.0420997193,-28036.485974369763,-51909.288991604924,-66494.13752485962,-70759.61032624368
9383.687005482556,8851.804894424069,-49709.07267440232,-68449.91516469898,-28800.200378918697,-51755.643100219146,-66416.84519253316,-70612.35703377212
9395.980464932974,8941.122465267475,-49567.0496901333,-68306.1710961069,-29050.450509840313,-51619.90095614207,-66274.57633907514,-70470.3340495031
9376.959130401508,8814.74570211717,-49702.99299991048,-68459.19113864793,-28316.285111461297,-51770.037623648364,-66339.86578462909,-70611.15003957153
9373.494610010936,8724.86933766238,-49845.55242604642,-68600.11888743864,-27980.29368880912,-51923.19177665613,-66474.80326590578,-70761.33141056674
9393.566476531802,8842.260699541654,-49730.66445954615,-68475.84318826714,-28667.72158953209,-51808.080292711296,-66435.62065787562,-70652.09843541366
9409.950305217542,8959.786171887657,-49563.51811450936,-68315.84940145606,-29088.202606225328,-51645.00196516538,-66294.06706024017,-70491.41174452445
9394.19232537655,8861.326737562029,-49650.98049056298,-68412.6995101809,-28465.550060933838,-51743.886082635654,-66316.93289481795,-70583.61269040259
9374.321624555781,8732.603041243916,-49832.789579962446,-68595.15680016957,-27985.166369100378,-51930.27727964846,-66470.33291701472,-70766.0029251579
9394.460546310014,8824.781635377603,-49760.45933490507,-68516.94804632045,-28578.02403903294,-51850.8391798543,-66453.99379181788,-70691.07987774372
9419.226279166494,8969.509180725716,-49576.705643737994,-68327.38290159499,-29171.932240954906,-51668.09131718771,-66300.28084519874,-70515.95395993638
9410.397340106647,8902.655113059893,-49618.25753668041,-68378.52369290873,-28664.681752286167,-51711.36429445318,-66279.76194378876,-70567.29591695021
9380.088374625251,8742.236643104154,-49820.697286212126,-68586.6407855321,-27981.835959176537,-51921.58245105534,-66435.01716077533,-70771.0991228937
9391.6665782531,8794.293855940563,-49797.80909988989,-68552.15204383756,-28384.167359372066,-51893.575715252846,-66465.41553323454,-70744.0982155917
9413.5712878193,8949.8619973495,-49605.40528361861,-68356.52957636472,-29070.634135083455,-51695.76277682338,-66323.28079024325,-70547.96165799638
9408.609200550223,8925.230374959752,-49590.697835767016,-68349.30996290565,-28734.240381031083,-51686.30798891879,-66262.21582439134,-70526.05694843018
9396.874534711187,8777.820620277003,-49767.85776231978,-68533.80126163975,-27973.364648027975,-51871.84981964229,-66385.2174741289,-70707.41900294054
9399.310874856816,8787.007187248133,-49799.26196327948,-68560.82452068622,-28206.046307807723,-51904.14809038021,-66457.16773953053,-70750.91549765057
9422.53433734588,8948.63265140446,-49613.541318600335,-68370.9911550273,-28974.11930252544,-51716.058160788794,-66332.08737755864,-70569.28522220674
9416.029979709385,8959.316785254096,-49569.12840236764,-68327.98639869528,-28851.56468767699,-51672.6957765455,-66261.34410635759,-70523.03946292872
9399.6685027681,8807.771957847113,-49746.377735898226,-68517.43978469846,-28062.07872177109,-51859.869284614244,-66380.3224420932,-70706.74845060689
9391.934799186563,8768.701108539237,-49827.961603160096,-68589.81473324476,-28120.46147828835,-51946.258776934,-66490.22596957993,-70795.59663481673
9416.119386687205,8925.230374959752,-49653.64034815316,-68416.4993067383,-28942.737453310187,-51769.07649863679,-66382.71407874991,-70621.72241469889
9418.153395432639,8978.695747696847,-49557.416088273065,-68322.82314572611,-29026.467088039768,-51683.31285516177,-66271.38003961803,-70528.47093683135
9402.90950571412,8838.013868095144,-49704.579973766806,-68480.17942669147,-28236.86936341159,-51830.25322321096,-66352.47216850187,-70679.14404620457
9385.966883416997,8758.933396212267,-49835.941175930646,-68615.2510184349,-28052.199250721846,-51968.00702428902,-66492.17057134755,-70810.68406232406
9408.810366250322,8899.659979302882,-49688.53142124789,-68455.70426651291,-28792.89135848181,-51815.29990617036,-66417.13576521109,-70658.46868258342
9428.099921715251,8997.091233383564,-49545.65907068957,-68311.75903222073,-29047.589486550034,-51671.35467187818,-66279.35961238857,-70517.67504425943
9405.926991215587,8869.663938243859,-49674.78509840788,-68450.69747575492,-28322.476544675417,-51812.885917769185,-66343.48676723085,-70654.35596160364
9392.493592797946,8762.554378814028,-49828.38628630475,-68611.63003583314,-27938.38416795542,-51972.41031794671,-66485.97913813342,-70812.65101583612
9406.821060993798,8871.407374311373,-49726.19411065509,-68500.40775542353,-28611.797524904912,-51862.55149394888,-66452.02683830581,-70708.9389215635
9429.48572987148,9000.287532840674,-49554.86798940516,-68321.77261373671,-29100.496065675747,-51689.70545407599,-66302.0019295218,-70534.41650085646
9425.19419493606,8912.869860275969,-49625.4100949061,-68399.31081525217,-28493.847369414256,-51766.17077185759,-66305.6005603791,-70597.94015859845
9395.958113188519,8766.957672471723,-49813.23180356405,-68600.61062581667,-27967.016752602667,-51969.705756867625,-66457.435960464,-70789.87458823617
9413.034845952374,8853.570682236039,-49743.96374749706,-68517.79741260975,-28519.68598600459,-51901.64469500121,-66452.76444587285,-70733.7940613978
9436.526529374902,9003.93086718689,-49551.13524808112,-68320.09623290256,-29121.5737606971,-51703.697646105014,-66299.81145856518,-70536.2493439018
9427.474072870502,8947.380953714963,-49581.33245484024,-68356.75309380927,-28641.458289797105,-51719.075646290265,-66271.02241170674,-70540.42912011495
9403.244781880949,8796.707844341738,-49776.21731474606,-68558.94697415197,-27948.755377382684,-51915.256907374496,-66421.6284658466,-70741.43835800151
9410.218526151006,8837.74564716168,-49763.83444831782,-68536.01408434083,-28322.610655142147,-51900.68356998963,-66460.54285294328,-70737.63856144411
9436.571232863813,8998.901724684445,-49568.63666398963,-68331.71914001933,-29061.93930649034,-51711.67721887556,-66318.0057785518,-70551.76145455378
9431.385628150181,8978.896913396944,-49554.130381838135,-68329.03693068468,-28775.50170129558,-51708.34680895172,-66256.98551618881,-70536.94224797991
9411.850203496242,8821.920612087324,-49741.25918641796,-68521.10547078913,-28019.92333172838,-51901.71175023458,-66389.1737328975,-70716.24794200038
9423.584869335278,8830.45897846925,-49767.701300108594,-68540.19386055396,-28221.40195624852,-51929.785541270445,-66454.53023368481,-70744.07586384725
9450.608128381746,8995.101928127042,-49580.1031088952,-68347.29830590467,-28981.517729940148,-51731.100884807216,-66332.93674384794,-70556.52237612277
9449.557596392346,9013.363303347029,-49522.23444250041,-68300.60551173754,-28886.701629960735,-51686.151526707596,-66248.76007422926,-70503.54874176369
9428.032866481884,8856.476409015228,-49694.20876433954,-68477.38545863456,-28096.299242532164,-51871.492191731006,-66355.89198540353,-70684.17318870702
9420.321514644804,8811.616457893428,-49783.19105901612,-68563.32791606522,-28073.65692539894,-51961.79323933044,-66462.88978611109,-70779.27986136435
9444.260232956438,8964.01065158971,-49612.982524988955,-68383.75400111127,-28865.825100639475,-51787.449632579046,-66361.68108721747,-70604.95860635741
9450.049334770363,9023.041608696176,-49506.05177951477,-68282.74646791774,-28994.727610913233,-51684.18457319553,-66246.12256838352,-70499.7936486952
9418.309857643826,8868.345185320995,-49669.39832799415,-68461.11338867109,-28238.612799479106,-51855.041307811895,-66334.90369736,-70653.73011275889
9412.00666570743,8791.924571028301,-49793.94224809912,-68586.46197157646,-28013.2625118807,-51980.747518628545,-66462.84508262218,-70779.97276544246
9430.379799649692,8922.324648180562,-49660.815258123315,-68444.97542917436,-28740.431814245203,-51842.72549661702,-66404.99876797185,-70650.82438597971
9452.329212704804,9027.042570953676,-49504.68832310299,-68291.59775872204,-29028.41168980738,-51697.88619254663,-66258.10310341157,-70496.59734923809
9436.884157286186,8910.589982341526,-49618.90573726961,-68416.83458290512,-28316.21805622793,-51819.16675796113,-66303.99123477832,-70615.88860939606
9415.135909931172,8792.684530339782,-49787.43789046263,-68584.67383202002,-27898.32984189151,-51979.406413961224,-66461.05694306576,-70786.72299226797
9433.53139561789,8900.978732225745,-49686.050377613356,-68476.55844408971,-28546.150451439677,-51873.45914524307,-66428.89278279457,-70689.85053179867
9457.917148818631,9035.133902446498,-49507.30347720427,-68297.5209710027,-29039.07347191256,-51689.68310233153,-66270.1953971619,-70500.53125626221
9441.689782344078,8944.229357746764,-49584.86403046418,-68378.88132082002,-28441.901915300125,-51773.21157136102,-66282.31004265667,-70574.49317866482
9420.38856987817,8802.184021733286,-49768.64007337571,-68570.79339871329,-27864.75752171964,-51963.87195156479,-66432.15613748504,-70764.41595130158
9438.560538120335,8881.912694205368,-49714.21357562704,-68507.29209271575,-28398.025440934354,-51903.87986944674,-66434.90540205305,-70704.31211046125
9460.286433730893,9034.843329768579,-49529.18583502601,-68322.13024164799,-29037.97823643425,-51709.57615489676,-66289.03791773772,-70515.01518666926
9457.291299973882,8991.078614125086,-49540.40641074257,-68331.60738129704,-28613.630367950245,-51729.73742839545,-66246.99428641729,-70532.74012002231
9434.380761907192,8836.18102504981,-49731.04443920189,-68534.15888955104,-27936.48426967672,-51933.29476514993,-66389.73252650887,-70735.0904625762
9447.456532413547,8873.396679567895,-49726.43997984409,-68529.62148542661,-28269.92759346099,-51931.99836397152,-66430.4797566509,-70743.13709058012
9460.666413386632,9017.274858626706,-49543.0439165883,-68345.1301866925,-28976.17566301533,-51744.48957973595,-66299.07385099815,-70551.2026609424
9450.96575629303,9001.293361341162,-49520.04397154379,-68316.96698867882,-28751.048892861476,-51716.81812010028,-66234.16438509994,-70516.15512563648
9438.046447997862,8855.403525281374,-49703.663552244136,-68516.61277015362,-28009.708584512304,-51912.88762246223,-66353.29918304672,-70706.01084303985
9444.796674823365,8851.268452557142,-49749.95401501108,-68556.17535783951,-28171.266993435263,-51956.764096827996,-66433.00550377434,-70755.98934364192
9467.886026845697,9010.368169590018,-49570.625969246146,-68359.72587582182,-28974.052247292075,-51767.13189686917,-66318.56457216317,-70577.5106641663
9469.204779768561,9040.78889379369,-49498.49688988888,-68295.50931400173,-28910.19331338326,-51701.9542100375,-66222.60853321654,-70508.60023601058
9446.115427746228,8886.85242972999,-49668.05722332683,-68475.08322895566,-28088.945518606368,-51885.12675584874,-66322.8561070986,-70678.29467991527
9442.919128289119,8839.444379740284,-49758.20180871509,-68559.59517474117,-27998.01862216218,-51958.95456778462,-66423.88599203658,-70758.11275936518
9462.49925643197,8988.038776879166,-49595.81638524728,-68394.37107972754,-28769.042047147996,-51790.936504714075,-66332.42265372547,-70598.29778650973
9465.896721589175,9054.445809655883,-49485.71169206044,-68287.73090693128,-28922.53147632259,-51678.70839580398,-66219.21106805933,-70496.35148004908
9454.340869705782,8923.57634587006,-49618.995144247434,-68432.63726623503,-28132.33025459412,-51814.87522302571,-66284.9475485024,-70633.23356309338
9438.493482886968,8833.163539548343,-49758.80530581538,-68571.35219232466,-27876.46983581422,-51966.28593996596,-66427.50697463834,-70775.68123050705
9455.749029606466,8959.853227121022,-49631.78034207587,-68434.71597846938,-28625.834420422845,-51837.919871559134,-66371.9628896669,-70646.5775545332
9478.368994995237,9069.242664485297,-49471.69714828696,-68275.32568875857,-28979.707238639265,-51673.72395679045,-66218.20523955885,-70481.2864042862
9469.987090824496,8960.72494515478,-49569.32956806774,-68377.85314057507,-28275.627288297095,-51776.541981284856,-66245.07203639412,-70573.08501876415
9454.564387150334,8842.439513497295,-49733.61488981425,-68552.39791302657,-27821.79746887654,-51948.18102695716,-66390.40307884253,-70744.23232605844
9469.182428024105,8941.256575734207,-49648.61120565071,-68454.20669963441,-28437.409214664607,-51858.818752624844,-66372.9687181674,-70660.94972621795
9483.532247964413,9070.069679030143,-49472.83708725418,-68277.13618005946,-28960.06005526305,-51683.73753830642,-66236.75718745675,-70484.21448280984
9473.83159087081,8991.145669358453,-49532.20332052748,-68349.71229430583,-28404.52979857085,-51754.39140252965,-66246.97193467282,-70555.02480924426
9453.49150341648,8845.680516443315,-49719.19801464058,-68538.20455529745,-27801.12210525538,-51950.125628724774,-66402.22715165939,-70756.99517214241
9466.835494856297,8911.61816258647,-49675.16507806362,-68488.56133086221,-28277.68364878698,-51899.20835485558,-66421.15907921303,-70715.35387222217
9490.30482653437,9066.806324339668,-49481.621322825114,-68290.50252324373,-28946.045511489574,-51701.08249200374,-66274.8445600086,-70512.35532907907
9476.893779861186,9018.191280149375,-49501.60378236816,-68321.97377943681,-28563.160128970165,-51731.8608441187,-66243.887393938,-70535.6458468015
9450.58577663729,8856.811685182058,-49698.74616846397,-68527.67688365899,-27826.536038701062,-51936.26754716248,-66385.8209712292,-70737.50445097739
9448.81998882532,8874.000176668189,-49717.25341287296,-68537.26578203033,-28113.219513084834,-51949.6115386023,-66446.95299231446,-70754.73764595242
9472.177561781116,9034.195129179374,-49524.17904426802,-68336.30124763265,-28865.80274889502,-51751.68684145056,-66313.8036505942,-70562.37853317005
9478.324291506326,9039.514844359737,-49478.201505923455,-68292.22360756679,-28652.38829283575,-51717.265154989385,-66231.05749262065,-70521.02780592773
9461.24755874247,8884.214923884265,-49659.74237438946,-68481.25231042532,-27864.623411252905,-51887.31722680536,-66343.97850560886,-70689.31408993174
9454.318517961327,8863.159580607366,-49722.77429375343,-68540.99852335436,-27974.415180017375,-51945.49881762252,-66433.16196598554,-70743.91940163606
9476.87142811673,9020.73937901728,-49544.85440788918,-68357.66951533193,-28770.40550355977,-51766.86367593571,-66323.25843849879,-70570.1569402405
9490.193067812093,9068.46035342936,-49454.10632540064,-68268.55311018862,-28771.388980315805,-51677.00966322538,-66212.23732378928,-70481.66638394193
9480.224189785027,8929.544261639627,-49609.830929020754,-68430.22327783385,-27996.87868319496,-51835.751752346965,-66301.8454673106,-70643.13538588707
9468.176599523616,8865.908845175367,-49724.18245365411,-68541.40085475455,-27899.93916749229,-51950.61736710279,-66427.28345719379,-70760.1020646217
9488.06965208884,9006.098986399054,-49572.48116403594,-68373.91923355094,-28653.6623422697,-51792.25525763694,-66346.2136800544,-70606.18795230245
9488.740204422498,9075.992891310798,-49461.34829060415,-68267.39081947695,-28840.031187538054,-51683.11168946167,-66228.86702166403,-70494.7421544483
9463.147457021172,8939.28962222214,-49599.68323703805,-68415.80640266018,-28116.169943352932,-51826.34166793128,-66302.35955743308,-70639.24618235185
9459.057087785852,8854.040068869599,-49729.47981709002,-68552.10734034865,-27835.275570783087,-51962.508495153015,-66431.26206770683,-70785.94068121203
9475.284454260403,8973.085459838565,-49613.58602208925,-68427.98810338833,-28568.502195894984,-51833.71774360153,-66387.05031717425,-70664.05661869724
9492.517649235446,9086.006472826777,-49454.3745463341,-68256.59492690503,-28945.240848689184,-51657.496590315895,-66240.60168750306,-70486.20378806637
9477.87725661722,8979.902741897433,-49550.33058528073,-68366.14082648049,-28262.68562825747,-51753.273815306886,-66267.26731863825,-70591.97224282888
9453.335041205293,8845.211129809753,-49731.491474090995,-68558.11995960712,-27781.027886990058,-51931.3054598934,-66426.92582928251,-70775.6588787626
9464.622672155223,8935.534529153649,-49659.5188569449,-68469.33883063064,-28393.085705409732,-51857.49999970198,-66426.12116648212,-70696.98073827992
9495.535134736912,9085.447679215393,-49460.63303478158,-68263.76983687519,-28938.82589803051,-51645.91838668804,-66267.42378084944,-70491.1882270799
9477.54198045039,9003.93086718689,-49524.22374775693,-68339.34108487857,-28399.411249090583,-51715.722884621966,-66270.79889426219,-70561.59622211412
9456.263119728937,8856.118781103944,-49716.69461926158,-68541.60202045465,-27756.597430300408,-51913.64758177371,-66421.58376235768,-70763.27601233435
9470.881160602708,8917.139043466932,-49678.45078449855,-68491.08707798566,-28196.52446466976,-51868.45235448508,-66440.71685561143,-70721.81352636976
9489.746032922987,9068.8403330851,-49489.31032291774,-68291.84362791105,-28892.177807352284,-51670.058270699774,-66300.23614170983,-70525.11817516305
9479.196009540083,9028.45073085436,-49498.42983465551,-68313.01072991022,-28514.567436524325,-51686.10682321869,-66259.22069063433,-70539.89267824801
9449.132913247695,8864.27716783013,-49696.84627018527,-68524.92761909099,-27772.44481711922,-51897.86725018827,-66403.70236679344,-70744.47819524744
9446.67422135761,8875.408336568873,-49720.159139652154,-68531.43197672749,-28029.244009166243,-51906.495023548014,-66466.62252743513,-70764.37124781267
9463.952119821563,9026.148501175465,-49539.37823049763,-68345.04077971468,-28802.100277197394,-51714.538242165836,-66347.21950855489,-70576.28131822126
9470.076497802318,9040.632431582502,-49483.36475889263,-68295.53166574618,-28663.09477842984,-51657.31777636025,-66261.72408601333,-70514.38933782451
9458.073611029818,8893.736767022225,-49654.936749331566,-68479.33006040216,-27873.318239846023,-51839.75271460447,-66368.5654245097,-70698.36654643614
9453.402096438658,8867.831095198524,-49718.12513090672,-68537.95868610844,-27934.71848186475,-51902.67287524616,-66455.37959997411,-70759.78914019933
9462.745125620977,9006.814242221624,-49549.77179166935,-68353.80266354117,-28744.186907313695,-51726.09409404923,-66354.64028771405,-70584.10442878061
9449.289375458882,9038.285498414696,-49469.394918608064,-68279.93014811637,-28820.31694892847,-51636.79887495028,-66257.07492316663,-70504.10753537506
9433.86667178472,8894.876705989445,-49620.336248914755,-68435.4982895253,-28042.208020950322,-51800.41364436313,-66344.58200270915,-70664.25778439734
9415.895869242653,8824.93809758879,-49732.09497119128,-68542.00435185485,-27878.034457926093,-51911.23359337254,-66469.86353038115,-70777.49172180794
9428.144625204162,8965.8658463795,-49585.154603142095,-68387.37498371303,-28631.08708036984,-51756.35835604172,-66396.5721603122,-70632.76417645981
9430.826834538799,9036.609117580547,-49462.08589817118,-68272.19644453484,-28873.42469375428,-51635.92715691652,-66273.30228964119,-70514.88107620252
9378.85902868021,8872.346147578495,-49599.39266436013,-68423.45069926389,-28153.787929271213,-51784.365091844214,-66334.12138630408,-70643.20244112045
9339.877586350154,8748.49513155164,-49745.55072135338,-68566.25599458885,-27792.807256318007,-51930.09846569282,-66467.89657686908,-70785.82892248976
9345.04083931933,8853.347164791485,-49631.445065909036,-68448.99874317631,-28467.293497001352,-51809.264935167426,-66423.66247459203,-70674.56193859124
9339.497606694415,8946.308069981107,-49470.42309885301,-68286.63567145297,-28877.939746134252,-51652.310985602264,-66279.56077808866,-70506.7897447097
9308.003998756885,8820.311286486542,-49564.34512905421,-68386.12328602353,-28227.0122441068,-51749.87635014968,-66306.42757492395,-70602.9693011009
9294.503545105881,8688.078366288944,-49726.864662988744,-68555.63891597258,-27721.72870895013,-51921.247174888515,-66445.72364636941,-70779.39162008662
9292.31307414926,8762.286157880564,-49659.004766822436,-68474.74795278884,-28309.289015446786,-51843.6866216286,-66439.06282652174,-70700.15468599257
9302.773690554344,8895.010816456177,-49481.21899142492,-68290.90485464393,-28884.91349040431,-51664.44798284149,-66294.13411547353,-70517.83150647063
9278.700861775978,8813.426949194307,-49527.26358500285,-68350.27108791722,-28390.93993794202,-51718.85212884571,-66282.06417346766,-70569.46403616239
9254.225701597417,8662.507970632074,-49721.58965129729,-68552.19674732647,-27762.78886351453,-51922.20829990009,-66430.32329443972,-70766.78523621384
9261.534722034303,8708.083177576444,-49701.85306094326,-68527.05103481424,-28185.19213023092,-51889.48534601752,-66464.23089077842,-70745.3946167701
9282.880637989121,8859.985632894712,-49509.20337548297,-68324.23130562679,-28872.776493165078,-51698.40028266911,-66323.07962454316,-70554.22014644387
9281.450126343982,8833.074132570522,-49500.53089863431,-68323.2254771263,-28542.976503727023,-51700.14371873662,-66269.88247273953,-70549.36981789707
9271.414193083549,8686.491392432617,-49690.92305790461,-68520.83724985567,-27806.106544268914,-51894.29097107542,-66404.99876797185,-70742.31007603527
9264.932187191509,8688.748918622603,-49723.28838387589,-68551.45913975945,-27999.672651251873,-51923.23648014504,-66474.22212054994,-70771.27793684935
9294.190620683506,8857.325775304529,-49534.684364162014,-68350.13697745049,-28737.771956655022,-51728.7092481505,-66351.3098777902,-70584.59616715863
9311.893202292109,8886.718319263258,-49472.65827329854,-68295.17403783489,-28641.167717119184,-51674.23804691292,-66262.26052788027,-70527.10748041958
9286.948655479986,8729.339686553441,-49649.79584810685,-68484.62742383807,-27876.782760236594,-51861.52331370393,-66371.69466873344,-70706.25671222886
9292.715405549456,8705.892706619825,-49728.87631998972,-68566.74773296688,-27940.887563334414,-51941.78842804294,-66476.01026010636,-70792.04270744833
9325.013676287375,8868.680461487826,-49557.66195746207,-68379.73068710932,-28761.464805777647,-51769.34471957025,-66375.1144856351,-70624.44932752244
9329.349914711704,8919.284810934641,-49458.1743428915,-68279.08078182707,-28820.451059395204,-51675.35563413568,-66263.73574301432,-70520.84899197209
9313.860155804177,8776.948902243246,-49615.32945815676,-68452.3068013557,-27999.851465207514,-51833.40481917916,-66351.60045046812,-70680.12752296061
9316.117681994163,8711.614753200383,-49723.91423272064,-68561.85270093117,-27816.723622885183,-51947.28695717895,-66463.56033844476,-70794.99313771643
9342.269223006871,8853.213054324753,-49578.27026584987,-68410.12905956854,-28576.74998959899,-51789.14836515765,-66386.93855845196,-70654.13244415908
9346.694868409022,8936.518005909682,-49453.16755213351,-68289.83197091008,-28849.37421672037,-51668.22542765444,-66263.66868778094,-70519.86551521606
9327.964106555475,8814.544536417072,-49578.449079805505,-68428.9492283999,-28125.13299287951,-51793.43990009307,-66320.3080082307,-70634.84288869415
9324.588993142725,8718.63320095935,-49726.6858490331,-68569.92168067953,-27764.465244348678,-51943.26364317699,-66457.68182965301,-70786.54417831232
9349.958223099497,8837.186853550298,-49615.932955257056,-68450.27279261027,-28437.05158675332,-51825.67111559762,-66411.65958781954,-70672.57263333471
9376.065060623296,8967.34106151355,-49444.2715578403,-68282.83587489557,-28882.119522347395,-51650.768715234844,-66255.24208012129,-70494.96567189285
9357.446057492025,8870.289787088608,-49536.919538607544,-68382.88228307752,-28253.096729886143,-51752.826780417774,-66283.13705720151,-70591.6593184065
9343.476217207459,8738.816826202492,-49713.61007852675,-68566.16658761103,-27710.977519867127,-51935.19466342863,-66432.42435841852,-70775.81534097379
9357.244891791928,8819.014885308134,-49657.77542087739,-68502.2629502133,-28257.20945086592,-51878.42123251215,-66437.76642534333,-70721.41119496957
9375.170990845083,8961.283738766162,-49479.09557570166,-68317.07874740109,-28873.80467341002,-51695.82983205674,-66300.83963881012,-70543.37955038305
9384.178743860573,8918.368389411973,-49493.84772704217,-68341.82212851311,-28399.835932235233,-51723.411884714595,-66264.56275755915,-70569.66520186249
9370.499476253925,8774.534913842072,-49675.65681644164,-68530.53790694928,-27717.86185715936,-51922.74474176702,-66396.61686380111,-70753.53065175183
9375.841543178743,8811.75056836016,-49676.10385133074,-68522.89361034556,-28122.786059711703,-51914.63105852975,-66445.38837020259,-70749.90966915007
9401.277828368882,8974.046584850143,-49485.42111938252,-68324.05249167114,-28863.008780838107,-51710.336114208236,-66307.72397610235,-70563.02673375925
9403.892982470154,8963.9659481008,-49466.399784851055,-68306.19344785136,-28549.70437880807,-51692.38766341063,-66242.61334450405,-70536.98695146882
9371.818229176788,8794.182097218287,-49673.533400718385,-68523.11712779012,-27758.139700667823,-51905.802119469896,-66384.1669421395,-70736.4986224769
9377.696737968534,8797.26663795312,-49710.726703492015,-68553.22492757141,-27952.845746618004,-51935.32877389536,-66454.86550985165,-70775.9047479516
9406.463433082514,8963.094230067043,-49525.52014893534,-68360.88816653349,-28746.7350061816,-51745.71892568099,-66336.78124389425,-70596.01790857529
9420.723846044999,8995.21368684932,-49452.51935154431,-68289.38493602097,-28650.667208512692,-51678.06019521478,-66237.42773979041,-70522.16774489496
9411.403168607136,8847.111028088455,-49620.80563554831,-68466.14253117354,-27861.024780395604,-51848.69341238659,-66340.69279917394,-70688.01768875333
9405.47995632648,8804.776824090102,-49712.89482270418,-68561.67388697552,-27851.771158191106,-51942.52603560997,-66453.45734995096,-70787.92998646856
9437.44295089757,8965.798791146135,-49537.65714617457,-68365.26910844674,-28627.667263468178,-51763.30974856731,-66349.6111452116,-70620.62717922058
9437.130026475195,9020.225288894808,-49440.73998221636,-68275.90683411442,-28748.07611084892,-51670.3935468666,-66239.37234155803,-70513.38350932402
9412.587811063268,8873.41903131235,-49593.53650731284,-68441.17563261696,-28023.387852118954,-51831.01318252244,-66320.79974660871,-70673.35494439065
9405.725825515488,8794.807946063036,-49720.449712330075,-68569.04996264577,-27829.26295152461,-51963.08964050885,-66454.84315810718,-70815.40028040412
9436.750046819454,8937.412075687895,-49575.945684426515,-68414.86762939306,-28572.100826752285,-51807.38738863318,-66379.45072405944,-70668.21404316594
9458.833570341298,9043.515806617237,-49422.702124440926,-68260.52883392917,-28893.921243419798,-51659.66470952806,-66236.24309733429,-70521.47484081684
9446.026020768408,8928.33726743904,-49533.11974205014,-68375.2379864738,-28178.218385960867,-51777.21253361852,-66276.5432925872,-70627.08683336817
9432.7267328175,8817.673780640815,-49693.26999107242,-68539.4786047314,-27749.377816841345,-51937.98863148554,-66407.9268464955,-70778.8104747308
9446.562462635335,8919.217755701275,-49604.37710337366,-68439.72276922736,-28396.125542655653,-51835.30471745786,-66380.25538685982,-70688.64353759808
9455.324346461815,9037.570242592126,-49443.601005506636,-68278.3655260045,-28896.80461845453,-51676.60733182518,-66245.36260907205,-70528.2474193868
9442.114465488728,8954.53351194066,-49512.109102262155,-68356.30605892016,-28308.283186946297,-51754.36905078519,-66252.80573997567,-70595.39205973054
9433.844320040265,8828.916708101835,-49686.676226458105,-68543.05488384425,-27717.280711803523,-51938.32390765237,-66393.21939864391,-70774.8095124733
9441.44391315507,8897.581267068537,-49644.7667056044,-68491.60116810813,-28232.086090098157,-51891.184078596125,-66410.6761110635,-70735.78336665433
9462.67807038761,9046.55564386316,-49453.033441666776,-68293.94469188985,-28881.940708391754,-51693.66171284458,-66263.78044650322,-70544.09480620561
9457.939500563085,9002.768576475213,-49472.971197720915,-68329.08163417359,-28475.54129070536,-51726.22820451596,-66233.27031532173,-70568.23469021734
9437.375895664203,8847.781580422114,-49662.71515640202,-68524.36882547961,-27798.529302898565,-51920.062532432385,-66371.29233733325,-70754.80470118579
9446.294241701871,8883.164391894865,-49661.865790112715,-68514.06467128571,-28144.355493111074,-51904.259849102484,-66417.33693091117,-70748.36739878266
9470.21060826905,9043.024068239221,-49470.35604361964,-68313.7259857328,-28907.444048815258,-51710.8055008418,-66284.85814152457,-70559.49515813532
9463.661547143645,9024.986210463789,-49445.79147646326,-68299.30911055913,-28675.276479157983,-51691.15831746558,-66222.78734717218,-70535.89171599051
9441.980355021997,8864.701850974781,-49633.72494384348,-68501.6147496241,-27916.1888857113,-51882.95863663658,-66347.89006088855,-70719.82422111323
9440.10280848775,8852.9895368802,-49683.457575256536,-68543.43486349999,-28037.89413427045,-51929.04793370342,-66428.13282348309,-70767.83576820324
9472.758707136954,9024.673286041414,-49494.27241018682,-68350.22638442832,-28813.276149425048,-51725.46824520448,-66304.61708362306,-70574.22495773136
9480.291245018392,9057.887978302,-49417.06948483819,-68276.91266261491,-28769.712599481656,-51659.50824731687,-66208.57163769861,-70498.76546845025
9455.503160417456,8897.871839746456,-49596.19636490302,-68473.1162754436,-27942.63099940193,-51841.339688460794,-66323.7054733879,-70682.94384276198
9453.603262138757,8851.804894424069,-49688.66553171463,-68569.20642485695,-27867.171510120814,-51934.8593872618,-66436.26885846483,-70783.77256199987
9472.535189692402,8994.520782771204,-49531.398657727084,-68405.07756532164,-28650.130766645765,-51778.86656270821,-66353.67916270246,-70632.2724380818
9493.031739357917,9074.987062810309,-49403.50197595382,-68277.56086320411,-28820.473411139657,-51650.74636349039,-66222.85440240556,-70502.9899481523
9477.452573472568,8939.736657111247,-49539.37823049763,-68425.9987981318,-28052.489823399763,-51797.10558618374,-66287.47329562585,-70634.93229567198
9457.023079040418,8844.31706003154,-49685.268066557415,-68572.51448303634,-27817.103602540923,-51942.34722165432,-66430.85973630664,-70785.7618672564
9480.023024084929,8976.862904651513,-49555.873817905645,-68433.28546682424,-28539.713149036546,-51805.755711287944,-66364.78797969675,-70651.07025516871
9491.914152135152,9082.385490225017,-49407.2123655334,-68284.66871794089,-28876.6656967003,-51657.98832869391,-66217.9817221143,-70494.96567189285
9472.803410625866,8968.860980136513,-49519.70869537696,-68404.2952542657,-28186.24266222032,-51769.478830036984,-66258.6395452785,-70604.82449589069
9458.565349407834,8853.682440958315,-49685.133956090685,-68577.47657030541,-27741.91233419327,-51935.75345704001,-66405.51285809433,-70775.18949212904
9471.73052689201,8951.158398527909,-49598.56564981528,-68476.82666502317,-28383.250937849396,-51854.23664501151,-66386.75974449632,-70704.98266279491
9490.684806190111,9083.592484425602,-49419.81874940619,-68292.08949710005,-28930.846325259965,-51675.445041113504,-66235.46078627835,-70526.16870715245
9482.995806097486,9006.50131779925,-49472.0771279427,-68356.41781764243,-28368.096455108698,-51728.95511733951,-66226.78830942968,-70565.57483262716
