Fp1,Fp2,C3,C4,P7,P8,O1,O2
14434.086016903642,5133.659259517105,-27580.599794459322,-34395.557271904625,-38218.24201562906,-38148.97395956206,-27344.587724755733,-36876.690313421524
14277.176770827386,5182.83309731878,-27512.985767482016,-34294.30386952208,-38416.18906452526,-38057.64473171768,-27402.14346672815,-36860.418243458065
14233.456758672806,5201.385045216685,-27467.6340779822,-34265.939505808296,-38300.18351080221,-38030.24149301547,-27307.774401637842,-36803.71186777495
14385.068641313153,5153.015870215401,-27524.765136809965,-34353.64775105092,-38085.04797041988,-38106.125665441235,-27231.778470489797,-36796.42519908252
14451.47567408987,5128.719523992482,-27572.97784960006,-34398.39594345044,-38171.72803541756,-38134.06534601037,-27310.925997606042,-36849.220019485954
14298.388576315472,5161.598940086239,-27527.335587422323,-34327.16093387138,-38397.994744538635,-38074.050912147875,-27398.030745748372,-36866.274400505354
14208.981598494245,5181.804917073836,-27475.971278664027,-34284.4914537062,-38342.36125258938,-38035.225932029,-27331.623712971654,-36823.69432731799
14345.75192281627,5149.104314935722,-27518.149020451194,-34348.41744284838,-38109.21020617607,-38099.82247350484,-27238.461642081937,-36803.26483288584
14439.986877439844,5112.045122628823,-27589.764009685998,-34415.62913842549,-38143.944817059615,-38158.428747466656,-27302.521741690845,-36852.371615454154
14320.270934137217,5143.0246404438785,-27552.235430745535,-34350.809079505096,-38379.755721063106,-38096.87204323674,-27403.775144073385,-36878.83608088924
14210.032130483643,5188.8680683217135,-27479.256985098957,-34277.07067454704,-38376.64882858382,-38036.09765006276,-27354.22132661597,-36833.082059989225
14316.225268390808,5162.157733697622,-27508.381308124222,-34326.04334664862,-38141.82140133636,-38070.541688268386,-27247.24587765287,-36795.91110896005
14448.301726377216,5119.82352969927,-27578.476378736068,-34402.396905707945,-38106.81856951935,-38140.3014827134,-27278.940651290497,-36829.34931866519
14348.232966450807,5130.239442615443,-27568.865128620284,-34368.46695762479,-38346.2504561246,-38119.268491180956,-27398.522484126388,-36872.577592441754
14209.652150827904,5175.948760026546,-27486.14132239119,-34276.60128791348,-38403.73914286365,-38032.56607443882,-27377.5118443384,-36833.5961501117
14282.720003452303,5162.381251142175,-27492.2880521164,-34307.960785384275,-38177.47243374258,-38050.91685663663,-27263.875575527618,-36791.060780413245
14433.080188403153,5116.068436630779,-27569.110997809294,-34397.501873672234,-38086.701999509576,-38135.4511541666,-27269.821139552732,-36829.10344947618
14376.977309820333,5122.6622012450935,-27572.664925177687,-34380.46984439729,-38298.95416485717,-38122.21892144906,-27382.585690329754,-36871.191784285526
14214.144851463421,5165.108163965722,-27502.994537710496,-34292.76159915466,-38423.520436706596,-38044.90423737815,-27396.399068403134,-36847.275417718345
14247.873633846479,5160.995442985945,-27492.600976538775,-34301.590538214514,-38226.869788988806,-38048.726385680005,-27282.472226914433,-36798.52626306132
14411.264885814773,5117.878927931658,-27566.093512307827,-34396.76426610521,-38082.76809248544,-38142.335491458834,-27256.432444624003,-36827.78469655332
14397.630321697035,5114.704980219005,-27589.808713174905,-34408.65539415543,-38266.14180399678,-38144.45890718209,-27365.5089575659,-36877.897307622115
14235.624877884971,5164.437611632063,-27515.846790772295,-34311.96174764178,-38433.17639031129,-38057.398862528666,-27399.952995771528,-36852.796298598805
14233.546165650627,5177.513382138417,-27479.033467654404,-34294.75090441119,-38267.21468773064,-38029.19096102607,-27286.227319982925,-36792.178367636014
14401.497173487804,5137.8613874747025,-27539.22671547255,-34389.812873579605,-38068.41827254513,-38106.84092126381,-27221.519019784813,-36800.7390857624
14433.750740736812,5129.837111215247,-27573.49193972253,-34400.42995219588,-38203.646326499744,-38147.18582000564,-27316.804506397788,-36862.13932778112
14278.87550340599,5177.312216438319,-27511.354090136778,-34309.68186970733,-38412.45632320122,-38071.100481879774,-27380.194053673036,-36864.66507490457
14229.589906882038,5197.2052690035425,-27464.303668058357,-34273.78496811211,-38302.82101664794,-38022.39603071166,-27289.423619440036,-36816.00532722537
14378.407821465473,5156.659204561616,-27523.647549587196,-34366.50000411272,-38085.3385430978,-38103.53286308442,-27215.841676693166,-36822.42027788404
14448.368781610583,5128.451303059019,-27580.912718881693,-34418.266644271214,-38172.35388426231,-38155.38891022073,-27296.21854975445,-36876.265630276874
14309.54209679867,5168.63973958966,-27527.760270566974,-34331.67598625136,-38398.30766896101,-38085.45030182008,-27375.164911170592,-36879.506633222896
14226.684180102848,5207.867051108725,-27464.638944225186,-34273.51674717865,-38341.13190664434,-38025.41351621312,-27296.978509065928,-36820.90035926108
14364.214463736353,5184.732995597482,-27499.4406103421,-34332.480649051744,-38098.03433394842,-38078.96829592804,-27190.472446736392,-36795.41937058203
14459.745819538335,5138.554291552817,-27578.923413625173,-34413.95275759134,-38126.53280812893,-38143.98952054853,-27253.414959122536,-36851.56695265376
14332.519690098727,5158.357937140219,-27556.996352314516,-34358.96746623128,-38375.911221016795,-38101.521206083446,-27362.871451720173,-36886.32391528176
14220.492746888727,5204.246068506965,-27478.497025787477,-34285.7431513957,-38378.88400302935,-38032.320205249816,-27313.36233775167,-36842.35803393817
14320.963838215333,5174.182972214577,-27505.25206390048,-34340.08024216655,-38142.84958158131,-38073.5368220254,-27208.19738008945,-36821.14622845009
14450.492197333837,5126.2384803579425,-27582.454989249112,-34423.4746007293,-38105.857444507776,-38128.991500019016,-27239.10984267114,-36860.88763009162
14358.872396811534,5143.15875091061,-27571.994372844027,-34389.119969501495,-38337.86855195386,-38101.70002003908,-27351.18148937005,-36893.25295606291
14208.936895005334,5180.776736828892,-27504.67091854464,-34306.86554990596,-38411.003459811625,-38031.20261802705,-27342.106681121193,-36864.262743504376
14288.039718632666,5179.435632161574,-27496.601938796277,-34332.07831765155,-38176.533660475456,-38040.478591976,-27219.552066272747,-36818.48637085991
14433.23665061434,5127.53488153635,-27575.59300370133,-34429.598978710055,-38073.559173769856,-38124.00706100548,-27217.741574971864,-36849.55529565278
14372.976347562832,5123.48921578994,-27589.78636143045,-34418.80308613814,-38294.327353754925,-38119.2461394365,-27341.88316367664,-36907.40161030312
14209.585095594537,5171.389004157663,-27514.036299471416,-34328.993776916715,-38418.200721526235,-38045.15010656716,-27353.483719048945,-36881.2053658015
14248.141854779942,5182.251951962942,-27480.15105487717,-34316.23093083274,-38207.490826546054,-38017.59040565377,-27223.03893840777,-36805.99174570939
14403.642940955513,5130.753532737915,-27552.458948190088,-34409.884740100475,-38056.05775786135,-38098.436665348614,-27193.28876653776,-36821.90618776157
14388.913141359466,5119.86823318818,-27582.36558227129,-34426.35797576403,-38236.771611782504,-38116.58628184632,-27307.997919082394,-36886.34626702622
14219.263400943686,5158.73791679596,-27515.243293672003,-34339.61085553299,-38411.897529589834,-38046.62532170121,-27355.495376049923,-36879.81955764527
14208.154583949397,5171.389004157663,-27477.312383331348,-34317.50498026669,-38255.43531840269,-38009.11909450521,-27249.14577593157,-36820.40862088306
14364.08035326962,5128.026619914368,-27547.809785343386,-34410.08590580057,-38065.82547018832,-38089.272450121935,-27199.927234640985,-36834.08788848971
14390.142487304509,5104.311419047287,-27598.905873168216,-34452.733034221295,-38203.19929161064,-38133.50655239899,-27304.756916136375,-36896.896290409124
14231.512156905193,5144.030468944367,-27541.908924807183,-34366.120024456985,-38419.16184653781,-38062.60681898675,-27377.914175738595,-36895.66694446409
14182.830057481535,5169.891437279158,-27485.873101457728,-34318.600215745,-38309.794760918,-38014.52821666339,-27284.640346126598,-36833.12676347813
14332.542041843182,5131.44643681603,-27537.617389871764,-34402.93334757487,-38085.15972914216,-38086.43377857611,-27204.57639748769,-36824.677804074025
14394.165801306464,5093.806099153292,-27596.26836732249,-34441.95949339384,-38163.90492485821,-38126.44340115111,-27284.707401359967,-36878.50080472241
14237.413017441395,5108.58060223825,-27557.97982907055,-34371.55149835962,-38398.10650326091,-38068.57473475632,-27381.199882173525,-36899.64555497713
14144.876795396423,5137.637870030149,-27488.77882823692,-34306.66438420587,-38347.368043347364,-38008.38148693818,-27311.797715639797,-36843.78854558332
14270.940634124356,5110.704017961504,-27516.562046594867,-34361.62732382146,-38099.755418271474,-38053.487307248986,-27198.876702651585,-36799.71090551745
14339.292268668685,5035.71391531395,-27608.360661072813,-34462.634857015,-38131.427840164644,-38153.3549014753,-27271.76574132034,-36866.76613888337
14196.442269854817,5039.290194426799,-27586.4112480177,-34401.16755976291,-38377.83347103995,-38093.94396471309,-27383.94914674153,-36902.6630404786
14069.707878793226,5073.063680298767,-27502.793372010397,-34308.6983929513,-38382.21441295319,-38010.504902661436,-27331.31078854928,-36844.16852523905
14138.618306948938,5023.711028541449,-27524.005177498482,-34360.263867409696,-38142.491953670025,-38064.35025505427,-27219.261493594826,-36814.77598128033
14247.20308151282,4958.913321365514,-27596.447181278134,-34448.93323766389,-38094.815682746856,-38117.390944646715,-27245.23422065189,-36855.947894567005
14131.152824300865,4946.128123537079,-27588.713477696598,-34405.973184820796,-38324.88218842533,-38095.48623508051,-27355.04834116082,-36893.05179036281
13963.268871697053,4973.441955261464,-27509.76711628045,-34308.161951084374,-38399.3134974615,-38011.01899278391,-27337.41281478558,-36840.86046705967
14019.43880551324,4954.666489919006,-27507.95662497957,-34338.6050270325,-38173.22560229607,-38027.04519355836,-27218.56858951671,-36794.12296940362
14155.784446690614,4889.06411994268,-27588.847588163328,-34440.68544395989,-38069.75937721245,-38118.642642336206,-27217.160429616026,-36833.774964067336
14085.488210378673,4876.435384325431,-27598.637652234753,-34424.5251327187,-38281.40804545976,-38107.98086023103,-27329.902628648597,-36877.897307622115
13929.003647447069,4933.052353030724,-27516.047956472394,-34318.22023608926,-38408.72358187719,-38020.00439405494,-27339.64798923111,-36849.06355727477
13941.051237708478,4919.9095272910035,-27506.012023211963,-34337.17451538736,-38221.974756953095,-38037.79638264136,-27234.684197268987,-36805.96939396494
14089.93620752528,4858.352823061088,-27580.376277014766,-34437.75736543624,-38068.932362667605,-38115.20047369009,-27207.079792866683,-36825.68363257452
14079.45323937574,4842.170160075446,-27612.160457630212,-34440.372519537515,-38246.13699270928,-38119.201435947594,-27322.012462855873,-36884.42401700306
13905.46726053563,4874.11080290208,-27553.241259246024,-34365.985913990255,-38436.730317679685,-38056.43773751709,-27378.540024583344,-36883.14996756911
13883.048460846956,4880.592808794118,-27512.494029104,-34343.23183813475,-38284.738455383595,-38027.73809763647,-27274.58206112171,-36821.257987172365
14045.366829081397,4837.319831528644,-27577.40349500221,-34435.49983924626,-38083.70686575257,-38107.310307897365,-27215.886380182073,-36819.53690284931
14075.765201540615,4814.364589973044,-27628.521934571498,-34462.99248492628,-38216.07389641689,-38142.760174603485,-27318.547942465302,-36888.91671763858
13913.022150161523,4853.77071544775,-27573.13431181125,-34380.380437419466,-38427.83432338647,-38071.033426646405,-27388.03951597685,-36892.1577205846
13855.153483766733,4886.448965841409,-27516.91967450615,-34336.056928164595,-38325.3962785478,-38015.310527719324,-27295.503293931877,-36815.446533613984
14004.731357661649,4853.301328814188,-27570.854433876808,-34415.91971110341,-38099.911880482665,-38090.43474083361,-27215.86402843762,-36806.19291140949
14080.660233576327,4824.266412766745,-27644.503431857043,-34482.88553749151,-38182.59098322284,-38151.09737528532,-27307.93086384903,-36880.64657219012
13952.785903547516,4870.378061578043,-27597.721230712086,-34410.309423245126,-38415.764381380606,-38090.30063036688,-27401.763487072407,-36902.864206178696
13871.045574074456,4916.35559992261,-27518.730165807032,-34327.0044716602,-38361.6061045654,-38018.19390275406,-27322.660663445076,-36831.472734388444
13999.568104692473,4878.335282604133,-27561.198480272113,-34404.67678364239,-38125.19170346161,-38080.97995292902,-27228.693929754965,-36812.27258590133
14117.98764681669,4840.091447841102,-27633.618132307307,-34485.83596775961,-38137.97690129005,-38150.382119462745,-27286.070857771738,-36865.805013871795
14010.878087386858,4870.221599366856,-27611.154629129724,-34427.855542642545,-38384.784863565554,-38106.77386603044,-27397.89663528164,-36897.0080491314
13904.103804123855,4934.9969547983355,-27527.26853218896,-34331.430117062344,-38398.151206749826,-38026.73226913599,-27350.13095738065,-36840.39108042611
14020.422282269274,4938.573233911185,-27539.11495675027,-34379.553422874626,-38156.037110809935,-38071.4357580466,-27235.086528669184,-36807.75753352136
14174.828132966535,4909.605373097107,-27604.426754048676,-34455.4822987893,-38095.285069380414,-38122.82241854935,-27251.82798526621,-36843.02858627184
14103.906047809845,4930.861882074104,-27606.46076279411,-34431.43182175539,-38337.82384846495,-38116.63098533523,-27377.578899571767,-36894.169377585575
13969.236787466622,4990.004597902846,-27525.21217169907,-34335.431079319846,-38420.83822737196,-38046.781783912396,-27368.817015745284,-36859.16654576857
14041.231756357165,4991.502164781352,-27514.90801750517,-34354.452413851315,-38193.52098626149,-38049.642807202676,-27245.658903796542,-36799.66620202854
14209.898020016912,4959.3603562546205,-27581.94089912664,-34439.880781159496,-38076.59901101578,-38115.848674279296,-27229.967979188918,-36815.80416152527
14168.837865452513,4960.7685161553045,-27605.499637782534,-34439.05376661465,-38292.62862117632,-38120.98957550402,-27356.50120455041,-36883.06056059129
14021.428110769762,5020.358266873153,-27530.867163046263,-34339.56615204408,-38429.28718677607,-38047.2288188015,-27380.52932983987,-36878.791377400325
14052.49703556264,5038.709049070961,-27504.179180166626,-34331.54187578462,-38238.55975133893,-38033.01310932793,-27262.15449120456,-36813.56898707974
14228.025284770167,5004.287362609788,-27568.21692803108,-34420.3230047611,-38071.99455165798,-38098.01198220396,-27215.23817959287,-36796.648716527074
14235.021380784678,4999.951124185458,-27600.02346039098,-34438.04793811416,-38242.605417085346,-38116.45217137959,-27325.298169290803,-36855.38910095562
14079.83321903148,5054.578787634228,-27532.96822702506,-34335.09580315302,-38425.80031464104,-38042.40084199916,-27374.31554488129,-36848.3483014522
14067.875035747891,5080.506811202385,-27490.589319537798,-34311.17943658584,-38279.508147181055,-38013.835312585274,-27270.625802353123,-36791.843091469185
14236.29543021863,5045.8169038077485,-27552.146023767713,-34403.84976909754,-38076.82252846033,-38095.19566240259,-27210.454906279436,-36795.97816419342
14284.239922075263,5025.722685542427,-27602.996242403537,-34447.30156031866,-38199.55595726442,-38139.80974433538,-27309.048451071794,-36860.23942950242
14141.479330239217,5078.785726879326,-27542.579477140844,-34359.0121697202,-38415.07147730249,-38067.16657485564,-27380.842254262243,-36866.073234805255
14083.811829544526,5112.0898261177335,-27491.595148038286,-34314.97923314324,-38323.406973291276,-38029.34742323726,-27298.856055600176,-36815.446533613984
14244.67733438937,5091.034482840834,-27532.63295085823,-34389.63405962397,-38089.60772628876,-38084.95856344206,-27209.42672603449,-36798.66037352805
14328.429320863406,5068.258055240876,-27595.217835333093,-34441.31129280464,-38154.96422707608,-38143.07309902586,-27285.757933349363,-36854.36092071068
14190.51905757416,5104.780805680848,-27557.152814525703,-34375.060722239105,-38395.29018345955,-38088.53484255491,-27389.112399710706,-36879.841909389725
14093.154858726843,5141.750591009926,-27489.896415459683,-34302.46225624827,-38364.42242436676,-38023.647728401156,-27325.611093713178,-36820.632138327615
14224.828985313057,5121.701076233516,-27515.846790772295,-34362.29787615513,-38120.676651081645,-38057.600028228764,-27219.552066272747,-36789.183233879
14346.109550727553,5087.86053512818,-27581.98560261555,-34422.468772228814,-38119.96139525907,-38121.68247958213,-27264.568479605732,-36832.25504544438
14239.67054363138,5113.497986018418,-27555.27526799146,-34377.318248429096,-38359.482688842145,-38089.406560588664,-27377.288326893846,-36879.081950078245
14112.198545002764,5154.222864415988,-27482.408581067157,-34297.07548583454,-38392.71973284718,-38020.362021966226,-27343.537192766333,-36838.446478658494
14207.551086849106,5133.391038583642,-27500.78171500942,-34344.77410850216,-38160.14983178971,-38050.96156012554,-27231.19732513396,-36786.67983850001
14350.915175785445,5088.128756061645,-27575.99533510153,-34431.81180141113,-38097.944926970595,-38127.53863662942,-27253.39260737808,-36825.52717036333
14279.613110973014,5108.647657471616,-27565.869994863275,-34392.204510236326,-38323.474028524644,-38097.1402641702,-27364.32431510977,-36866.29675224981
14136.003152847667,5163.230617431476,-27485.5378252909,-34299.40006725789,-38411.09286678945,-38021.47960918899,-27355.875355705663,-36832.56796986675
14205.04769147011,5168.036242489367,-27470.808025694852,-34309.86068366298,-38186.591945480344,-38029.168609281616,-27232.001987934353,-36780.75662621935
14357.508940399759,5113.453282529507,-27555.58819241383,-34407.85073135504,-38077.180156371614,-38112.31709865536,-27229.677406511,-36814.17248418003
14316.918172468922,5109.049988871812,-27578.163454313693,-34407.157827276926,-38284.00084781657,-38124.27528193895,-27347.82872770175,-36872.66699941957
14160.031278137121,5161.30836740832,-27503.575683066334,-34303.31162253757,-38430.31536702101,-38033.773068639406,-27377.17656817157,-36855.098528277704
14187.501572072695,5178.340396683264,-27467.142339604183,-34287.91127060787,-38237.26335016052,-38015.77991435288,-27256.745369046377,-36791.977201935915
14351.36221067455,5129.792407726337,-27539.83021257284,-34390.19285323535,-38070.07230163483,-38098.235499648516,-27218.993272661362,-36800.068533428734
14359.297079956184,5121.008172155402,-27572.866090877786,-34403.447437697345,-38233.79882976995,-38108.226729420036,-27327.801564669797,-36850.2481997309
14202.946627491312,5170.472582634996,-27508.671880802143,-34314.08516336503,-38426.33675650797,-38036.12000180721,-27383.32329789678,-36846.358996195675
14178.493819057205,5186.767004342914,-27466.784711692897,-34286.838386874006,-38287.755940885065,-38017.121019020204,-27286.20496823847,-36799.04035318379
14342.46621638134,5151.808876014814,-27526.776793810943,-34376.9159170289,-38081.58345002931,-38089.138339655205,-27223.44126980797,-36802.259004385356
14380.061850555165,5118.169500609577,-27588.60171897432,-34426.00034785275,-38200.9641171651,-38134.82530532185,-27325.27581754635,-36866.207345271985
14225.72305509127,5159.430820874074,-27534.711663092574,-34339.92377995537,-38426.02383208559,-38072.709807480554,-27410.167742987604,-36880.53481346784
14170.268377097653,5197.808766103836,-27468.30463031586,-34281.317505993546,-38335.856894952885,-38022.48543768948,-27320.49254423291,-36817.3911353816
14311.285532866184,5153.149980682133,-27521.077098974838,-34359.03452146465,-38107.511473597464,-38075.32496158183,-27236.517040314324,-36806.68464978751
14395.886885629521,5120.225861099465,-27583.59492821633,-34420.434763483376,-38163.14496554672,-38135.920540800165,-27308.579064438232,-36862.8992870926
14264.525683465683,5156.301576650331,-27543.093567263317,-34354.05008245112,-38398.03944802755,-38078.364798827744,-27400.467085894,-36872.26466801938
14164.836903195013,5195.506536424939,-27471.053894883862,-34280.73636063771,-38372.37964539285,-38015.15406550814,-27342.620771243666,-36821.682670317015
14290.45370703384,5171.321948924297,-27500.044107442394,-34345.17643990236,-38132.67953785414,-38068.4853277785,-27238.416938593025,-36798.258042127854
14402.435946754927,5129.099503648223,-27576.867053135284,-34429.934254876884,-38132.99246227652,-38158.94283758913,-27291.63644214111,-36860.127670780144
14290.431355289384,5147.517341079395,-27557.778663370453,-34378.8158153076,-38372.96079074869,-38106.68445905262,-27402.434039406067,-36892.11301709569
14161.774714204636,5193.964266057524,-27478.29586008738,-34286.81603512955,-38409.103561532924,-38026.44169645807,-27365.419550588078,-36834.66903384555
14255.249709516731,5182.319007196308,-27483.123836889725,-34316.11917211046,-38172.48799472905,-38053.554362482355,-27247.96113347544,-36791.217242624436
14406.258095056784,5146.936195723557,-27555.40937845819,-34405.123818531494,-38093.16165365716,-38128.38800291872,-27257.415921380034,-36827.44942038649
14334.64310582198,5152.054745203823,-27557.5551459259,-34375.44070189485,-38316.20971157667,-38119.35789815878,-27374.784931514852,-36876.66796167707
14180.28195861363,5198.367559715219,-27483.86144445675,-34286.48075896272,-38418.29012850406,-38033.90717910614,-27376.885995493652,-36840.078156003736
14227.801767325613,5190.11976601121,-27481.67097350013,-34307.91608189536,-38210.46360855861,-38037.28229251889,-27265.529604617313,-36798.95094620597
14388.287292514719,5144.96924221149,-27551.16254701168,-34398.418295194904,-38080.91289769565,-38117.92738651364,-27247.379988119603,-36817.838170270705
14356.637222366004,5144.768076511393,-27566.339381496833,-34396.0713620271,-38276.46830993513,-38119.603767347784,-27358.5575650403,-36863.92746733755
14198.14100243342,5198.300504481853,-27492.668031772144,-34296.80726490108,-38426.13559080787,-38044.05487108885,-27386.85487352072,-36850.87404857565
14207.171107193364,5205.631876663194,-27468.30463031586,-34292.53808171011,-38245.3770333978,-38032.655481416645,-27277.845415812186,-36798.392152594584
14369.847103339089,5155.720431294493,-27538.422052672155,-34390.75164684673,-38072.75451096946,-38108.226729420036,-27235.287694369283,-36812.160827179054
14373.199865007386,5138.196663641532,-27583.304355538414,-34417.84196112656,-38236.168114682216,-38140.21207573558,-27348.23105910195,-36871.57176394126
14204.757118792191,5177.0216437604,-27522.55231410889,-34327.0044716602,-38434.629253700885,-38061.24336257498,-27409.13956274266,-36866.006179571894
14177.979728934733,5197.562896914827,-27474.026676896417,-34286.7936833851,-38299.89293812429,-38026.508751691435,-27309.16020979407,-36806.57289106523
14339.336972157595,5157.68738480656,-27528.699043834098,-34369.070454725086,-38082.566926785345,-38104.672802051646,-27231.934932700984,-36793.98885893689
14387.437926225415,5128.384247825653,-27582.477340993566,-34417.149057048446,-38192.112826360804,-38137.46281116758,-27321.565427966765,-36854.65149338859
14236.362485451995,5170.874914035191,-27530.286017690425,-34329.351404828005,-38419.22890177118,-38074.09561563678,-27405.451524907534,-36868.08489180623
14169.910749186367,5203.329646984297,-27466.315325059335,-34272.26504948915,-38336.3486333309,-38016.09283877526,-27320.49254423291,-36807.936347477
14308.759785742735,5164.705832565526,-27515.77973553893,-34349.356216115506,-38104.82926426283,-38084.735045997506,-27232.471374567915,-36795.2852601153
14391.863571627568,5126.685515247049,-27586.478303251068,-34419.02660358269,-38160.97684633456,-38153.69017764213,-27308.60141618269,-36856.43963294502
14270.49359923525,5166.806896544325,-27535.35986368178,-34340.19200088883,-38387.66823860029,-38075.68258949311,-27393.89567302414,-36863.32397023725
14161.126513615432,5198.859298093235,-27469.355162305255,-34267.92881106482,-38369.54097384703,-38010.974289294994,-27337.681035719044,-36811.22205391193
14275.656852204425,5165.734012810471,-27501.072287687337,-34329.7537362282,-38133.90888379919,-38066.004284143964,-27238.640456037578,-36790.300821101766
14394.255208284285,5125.143244879633,-27577.716419424585,-34416.14322854796,-38122.17421796015,-38142.04491878091,-27283.478055414922,-36836.72539433544
14293.292378579663,5149.193721913543,-27558.35980872629,-34363.01313197769,-38364.19890692221,-38108.51730209796,-27397.248434692436,-36875.32685700976
14166.401525306885,5199.820423104814,-27473.736104218497,-34265.71598836374,-38405.28141323107,-38019.646766143655,-27363.83257673175,-36827.51647561985
14257.082552562066,5191.483222422984,-27478.832301954306,-34302.05992484807,-38166.58713419284,-38044.63601644469,-27242.86493573963,-36780.06372214123
14396.155106562986,5140.297727620331,-27563.433654717646,-34405.7720191207,-38098.01198220396,-38137.798087334406,-27263.026209238316,-36819.447495871485
14327.892878996478,5147.919672479591,-27563.925393095662,-34375.820681550584,-38323.38462154682,-38117.949738258096,-27381.579861829265,-36870.409473229585
14177.510342301171,5197.182917259088,-27482.341525833792,-34281.71983739374,-38428.25900653112,-38037.19288554107,-27382.7645042854,-36840.50283914839
14224.739578335237,5190.812670089325,-27469.48927277199,-34289.96763109775,-38214.53162604948,-38038.109307063736,-27260.165185948037,-36777.71678897343
14375.300928986184,5133.368686839186,-27553.040093545926,-34400.47465568479,-38086.52318555393,-38130.55612213089,-27250.15160443206,-36810.81972251174
14352.725667086324,5133.480445561462,-27569.02159083147,-34385.99072527775,-38277.29532447998,-38131.4501919091,-27360.61392553019,-36860.19472601351
14192.776583764147,5184.688292108571,-27494.523226561934,-34286.592517685,-38430.583587954476,-38031.180266282594,-27387.436018876557,-36827.47177213094
14203.61717982497,5199.775719615904,-27462.24730756847,-34277.473005947235,-38253.80364105745,-38023.31245223433,-27276.414904167046,-36776.733312217395
14363.722725358335,5152.613538815205,-27531.135383979727,-34374.27841118317,-38072.352179569265,-38104.78456077392,-27230.347958844657,-36792.37953333611
14374.585673163614,5136.654393274116,-27576.285907779446,-34398.37359170599,-38230.11079193483,-38131.159619231184,-27340.40794854259,-36854.115051521665
14211.462642128783,5176.574608871295,-27513.611616326765,-34306.3961632724,-38429.823628643,-38061.89156316419,-27403.14929522864,-36857.91484807907
14173.37526957694,5194.590114902272,-27467.768188448932,-34277.78593036961,-38300.272917780036,-38031.403783727146,-27306.388593481613,-36804.58358580871
14331.156233686952,5153.395849871141,-27523.468735631555,-34370.165690203394,-38083.70686575257,-38100.0906944383,-27229.990330933375,-36796.80517873826
14380.307719744173,5118.8400529432365,-27580.68920143714,-34404.69913538684,-38185.87668965777,-38140.815572835876,-27319.330253521235,-36849.510592163875
14235.468415673784,5159.922559252091,-27526.553276366387,-34320.254244834694,-38412.612785412406,-38066.11604286624,-27399.4165539046,-36858.22777250144
14163.764019461158,5195.864164336224,-27462.001438379462,-34263.68197961831,-38338.2485316096,-38017.344536464756,-27316.31276801977,-36802.79544625228
14304.937637440878,5168.192704700555,-27504.134476677715,-34337.666253765376,-38101.32004038335,-38079.705903495065,-27223.173048874505,-36788.37857107861
14399.37375776455,5132.295803105331,-27568.708666409097,-34403.49214118626,-38140.14502050221,-38139.4521164241,-27284.752104848874,-36830.80218205478
14265.419753243894,5158.1120679512105,-27540.120785250758,-34342.65069277891,-38383.15318622031,-38085.40559833117,-27387.346611898734,-36852.05869103178
14158.913690914356,5199.283981237886,-27468.550499504865,-34268.2864389761,-38370.524450603065,-38019.55735916583,-27335.714082206978,-36803.98008870841
14277.914378394411,5178.40745191663,-27490.29874685988,-34321.5506460131,-38128.25389245199,-38059.991664885485,-27225.631740764587,-36774.47578602741
14414.930571905445,5150.266605647398,-27554.6047156578,-34390.61753638,-38097.40848510367,-38129.21501746357,-27254.085511456196,-36814.70892604696
14312.872506722511,5163.208265687021,-27545.97694229805,-34348.305684126106,-38340.70722349969,-38090.30063036688,-27368.504091322913,-36849.82351658625
14171.363612575962,5203.55316442885,-27475.077208885818,-34272.13093902242,-38402.889776574346,-38019.73617312148,-27348.722797479964,-36810.61855681164
14253.43921821585,5190.276228222398,-27474.67487748562,-34292.53808171011,-38162.07208181287,-38044.256036788945,-27227.978673932397,-36768.28435281329
14396.557437963182,5136.721448507482,-27555.230564502548,-34390.103446257526,-38084.042141919395,-38117.21213069107,-27242.57436306171,-36806.88581548761
14326.55177432916,5138.464884574996,-27566.69700940812,-34383.174405476384,-38312.76754293055,-38123.940005772114,-27367.006524444405,-36865.0003510714
14164.255757839175,5181.782565329381,-27495.931386462617,-34281.183395526816,-38429.600111198444,-38042.24437978797,-27377.355382127214,-36838.26766470286
14212.267304929175,5186.856411320736,-27476.30655483086,-34283.57503218354,-38216.99031793956,-38024.13946677917,-27251.895040499574,-36767.09971035716
14378.139600532008,5143.762248010904,-27546.98277079854,-34377.94409727384,-38074.34148482579,-38113.85936902277,-27227.978673932397,-36787.59626002267
14355.497283398783,5137.615518285695,-27572.530814710954,-34380.42514090838,-38266.94646679717,-38111.42302887714,-27342.26314333238,-36844.749670594894
14197.738671033225,5191.17029800061,-27496.11020041826,-34278.389427469905,-38427.633157686374,-38031.314376749324,-27373.89086173664,-36825.10248721868
14198.319816389063,5196.98175155899,-27463.856633169253,-34269.02404654313,-38255.05533874695,-38013.88001607419,-27261.036903981796,-36765.199812078456
14359.341783445096,5144.455152089018,-27535.203401470593,-34367.95286750232,-38075.637886004195,-38101.92353748364,-27216.95926391593,-36783.0812076427
14379.793629621701,5130.485311804451,-27577.537605468944,-34396.250175982736,-38221.99710869755,-38135.294691955416,-27321.140744822114,-36844.32498745024
14214.681293330348,5170.941969268557,-27519.82540128534,-34312.34172729751,-38432.12585832189,-38069.066473134335,-27393.113361968204,-36857.31135097878
14188.529752317638,5210.616315676727,-27452.703112686053,-34257.78111908211,-38296.853100878376,-38017.94803356505,-27283.321593203735,-36791.485463557896
14341.818015792134,5164.884646521169,-27512.2928634039,-34344.729405013255,-38080.42115931764,-38092.93813621261,-27209.024394634296,-36781.7848064643
14399.016129853266,5136.117951407189,-27573.49193972253,-34402.37455396349,-38178.03122735396,-38139.049785023904,-27299.660718400566,-36836.635987357615
14257.082552562066,5182.78839382987,-27521.322968163848,-34326.66919549336,-38403.89560507484,-38074.609705759256,-27380.4622746065,-36839.31819669226
14175.699851000292,5212.538565699883,-27459.140415089183,-34254.24954345817,-38339.768450232565,-38011.28721371737,-27306.12037254815,-36781.5836407642
14316.135861412986,5181.491992651462,-27496.82545624083,-34325.48455303723,-38100.82830200533,-38065.49019402149,-27209.404374290036,-36760.014207364824
14410.482574758838,5135.223881628976,-27570.02741933196,-34390.595184635546,-38139.36270944628,-38130.377308175244,-27274.962040777453,-36815.312423147254
14281.49065750726,5155.54161733885,-27548.5026894215,-34336.25809386469,-38391.19981422422,-38094.033371690915,-27389.626489833176,-36855.50085967789
14175.342223089006,5204.469585951518,-27469.399865794167,-34259.792776083086,-38388.45054965622,-38020.60789115523,-27338.3515880527,-36809.63508005561
14290.833686689579,5180.7096815955265,-27483.034429911906,-34311.62647147494,-38138.982729790536,-38055.945999139076,-27220.44613605096,-36770.25130632536
14423.75951096529,5138.174311897077,-27556.03522730294,-34396.741914360755,-38109.97016548755,-38135.004119277495,-27253.616124822634,-36811.892606245594
14335.64893432247,5161.934216253068,-27541.193668984615,-34351.23376264975,-38340.70722349969,-38105.90214799668,-27364.36901859868,-36844.05676651678
14191.323720374552,5200.26745799392,-27468.125816360214,-34265.47011917474,-38402.12981726287,-38022.641899900664,-27346.532326523346,-36803.53305381931
14267.051430589132,5188.59984738825,-27474.741932718985,-34305.345631283,-38180.60167796632,-38060.259885818945,-27235.354749602648,-36768.44081502448
14423.75951096529,5149.417239358097,-27553.062445290383,-34387.28712645616,-38092.46874957904,-38143.810706592885,-27242.172031661517,-36807.556367821264
14367.187245748908,5150.534826580862,-27556.616372658777,-34362.767262788686,-38307.02314460554,-38114.1946451896,-27355.04834116082,-36846.60486538468
14206.500554859706,5196.288847480875,-27479.704019988065,-34268.91228782085,-38424.79448614055,-38020.138504521674,-27364.6595912766,-36813.5913388242
14240.519909920682,5196.691178881071,-27463.81192968034,-34279.21644201475,-38219.247844129546,-38024.36298422372,-27245.770662518822,-36758.85191665315
14382.65465291198,5120.91876517758,-27542.423014929656,-34374.70309432782,-38076.062569148846,-38115.245177179,-27222.658958752032,-36782.745931475874
14363.052173024676,5102.836203913236,-27567.322858252868,-34375.93244027286,-38263.10196675086,-38121.25779643748,-27335.669378718067,-36838.29001644731
14188.887380228924,5152.7700010263925,-27499.015927197448,-34285.76550314015,-38431.94704436625,-38037.46110647453,-27373.622640803176,-36819.62630982713
14169.530769530627,5147.8973207351355,-27465.19773783657,-34280.24462225969,-38270.47804242111,-38020.362021966226,-27266.69189532899,-36766.33975104568
14311.39729158846,5081.445584469508,-27522.418203642155,-34358.02869296416,-38069.44645279008,-38097.5425955704,-27204.33052829868,-36766.719730701414
14300.176715871898,5024.649801808572,-27578.543433969433,-34385.45428341082,-38217.012669684016,-38122.06245923787,-27311.328329006235,-36827.96351050896
14115.372492715418,5038.530235115318,-27527.804974055885,-34307.401991772895,-38430.96356761021,-38061.64569397517,-27387.391315387646,-36838.20060946949
14046.97615468218,5034.685735069005,-27481.469807800033,-34280.892822848895,-38315.226234820635,-38028.81098137033,-27298.49842768889,-36786.63513501109
14162.981708405223,4958.958024854425,-27545.529907408945,-34372.93730651585,-38098.794293259896,-38107.46677010856,-27225.96701693142,-36786.92570768901
14202.946627491312,4909.44891088592,-27604.76203021551,-34420.09948731655,-38186.50253850252,-38135.294691955416,-27308.064974315763,-36842.82742057174
14038.795416211537,4922.882309303559,-27556.862241847783,-34341.287236367134,-38415.09382904695,-38075.95081042657,-27392.018126489893,-36849.17531599705
13932.959906215658,4925.229242471367,-27494.16559865065,-34283.06094206106,-38357.73925277463,-38012.158931751124,-27318.324425020746,-36786.54572803328
14061.437733344763,4893.802689767205,-27523.02170074245,-34345.489364324734,-38110.57366258784,-38069.87113593473,-27212.444211535956,-36763.97046613341
14139.758245916159,4838.683287940417,-27605.454934293623,-34431.32006303311,-38142.760174603485,-38143.40837519269,-27282.69574435899,-36832.25504544438
14004.709005917193,4849.278014812233,-27585.159550328204,-34381.69919034233,-38393.63615436985,-38106.550348585886,-27396.354364914223,-36861.111147536176
13888.234065560588,4888.550029820208,-27505.05089820038,-34295.242642789206,-38391.44568341323,-38029.436830215076,-27339.826803186752,-36795.70994325995
13995.276569757054,4865.997119664803,-27520.808878041375,-34344.103556168506,-38147.54344791692,-38050.1792490696,-27226.34699658716,-36762.048216110255
14118.680550894804,4818.8349388641045,-27603.443277292645,-34428.50374323175,-38116.45217137959,-38140.0556135244,-27264.97081100593,-36821.07917321673
14026.904288161313,4838.280956540222,-27593.69791671013,-34379.21814670779,-38356.42049985177,-38106.326831141334,-27380.12699843967,-36858.384234712634
13891.966806884624,4893.042730455724,-27511.152924436683,-34290.9958113427,-38422.17933203928,-38033.48249596149,-27360.882146463653,-36817.972280737435
13965.973432776145,4881.308064616688,-27510.571779080845,-34327.98794841623,-38191.352867049325,-38040.32212976481,-27239.825098493708,-36761.33296028769
14121.675684651815,4837.208072806367,-27592.915605654194,-34432.61646421152,-38099.978935716026,-38134.847657066304,-27246.642380552577,-36799.01800143933
14072.770067783604,4842.438381008909,-27607.019556405492,-34418.37840299349,-38320.121266856346,-38134.53473264393,-27368.79466400083,-36859.367711468665
13922.141661899288,4902.564573593685,-27525.323930421346,-34317.50498026669,-38438.674919447294,-38054.873115405215,-27375.880166993164,-36827.44942038649
13954.708153570671,4905.112672461591,-27517.143191950705,-34336.213390375786,-38244.3265014084,-38047.742908923974,-27265.26138368385,-36778.58850700718
14135.086731325,4880.101070416102,-27587.394724773734,-34428.03435659818,-38095.88856648071,-38134.78060183294,-27237.969903703917,-36800.67203052903
14146.396714019385,4899.3682741365765,-27607.332480827867,-34426.98382460878,-38273.204955244655,-38142.67076762566,-27348.342817824225,-36854.02564454385
13994.807183123492,4957.5945684426515,-27535.91865729316,-34323.539951269624,-38451.03543413108,-38054.873115405215,-27393.47098987949,-36841.97805428244
13998.450517469708,4977.644083219062,-27501.474619087534,-34311.112381352475,-38293.276821765525,-38038.48928671948,-27291.05529678527,-36792.80421648076
14174.157580632876,4946.418696214998,-27564.88651810724,-34395.84784458254,-38103.15288342868,-38115.82632253484,-27235.466508324924,-36801.36493460714
14220.224525955264,4940.920167078993,-27596.067201622394,-34411.4717139568,-38224.14287616526,-38137.105183256295,-27322.683015189534,-36838.58058912523
14062.0188787006,4976.280626807288,-27549.26264873298,-34346.09286142503,-38440.775983426094,-38079.25886860596,-27400.690603338553,-36844.81672582826
14018.880011901858,5003.9073829540475,-27497.96539520805,-34300.09297133601,-38342.11538340037,-38037.34934775226,-27316.625692442143,-36800.60497529566
14187.121592416954,4979.9016094090475,-27546.22281148706,-34381.69919034233,-38113.032354477924,-38108.74081954251,-27235.935894958486,-36802.19194915199
14271.611186458014,4965.685899935473,-27596.380126044765,-34426.91676937542,-38181.629858211265,-38138.02160477896,-27302.007651568372,-36835.54075187931
14138.953583115768,5009.987057445891,-27553.040093545926,-34353.64775105092,-38415.1161807914,-38080.80113897337,-27389.291213666347,-36839.96639728146
14064.723439779693,5056.165761490555,-27491.170464893636,-34297.52252072364,-38369.94330524722,-38028.54276043687,-27324.15823032358,-36791.217242624436
14208.981598494245,5036.47387462543,-27520.987691997016,-34355.30178014062,-38125.10229648379,-38065.780766699405,-27216.86985693811,-36758.56134397523
14317.253448635753,5005.807281232748,-27591.082762608858,-34422.133496061986,-38143.96716880407,-38132.5007238985,-27274.313840188246,-36814.77598128033
14200.778508279147,5031.690601311994,-27568.17222454217,-34374.65839083891,-38391.80331132452,-38095.709752525065,-27386.5643008428,-36845.37551943964
14093.73600408268,5083.2113722814765,-27487.504778802966,-34282.12216879394,-38404.18617775276,-38018.126847520696,-27341.03379738734,-36789.183233879
14206.9028862599,5073.689529143516,-27497.5407120634,-34320.76833495717,-38159.054596311405,-38049.46399324703,-27225.00589191984,-36756.79555616326
14344.41081814895,5034.037534479801,-27575.59300370133,-34405.45909469832,-38118.083848724826,-38128.36565117427,-27253.72788354491,-36797.22986188291
14270.20302655733,5060.47964817043,-27562.85250936181,-34357.78282377515,-38350.78786024903,-38099.978935716026,-27370.627507046167,-36838.871161803145
14130.795196389581,5112.603916240206,-27486.186025880103,-34273.80731985656,-38424.59332044045,-38018.395068454156,-27361.239774374935,-36806.438780598495
14198.722147789258,5104.691398703027,-27488.64471777019,-34307.670212706355,-38201.09822763184,-38044.63601644469,-27245.189517162984,-36759.880096898094
14349.574071118126,5054.467028911952,-27565.378256485255,-34386.884795055965,-38100.671839794144,-38117.592110346806,-27246.418863108025,-36791.70898100245
14310.480870065794,5063.877113327636,-27571.010896087995,-34378.56994611859,-38308.45365625068,-38128.09743024081,-27360.256297618904,-36842.87212406065
14156.9914408912,5113.408579040597,-27494.29970911738,-34286.95014559629,-38438.00436711364,-38033.03546107238,-27374.673172792576,-36812.89843474608
14195.391737865417,5123.332753578753,-27468.706961716052,-34291.12992180943,-38239.83380077288,-38024.51944643491,-27255.91835450153,-36755.32034102921
14359.632356123015,5078.830430368237,-27540.724282351053,-34382.816777565095,-38082.47751980752,-38109.143150942706,-27221.988406418375,-36777.98500990689
14360.079391012121,5077.086994300723,-27564.26066926249,-34386.92949854487,-38256.10587073635,-38128.58916861882,-27327.958026880984,-36833.81966755625
14205.517078103672,5128.719523992482,-27490.47756081552,-34294.86266313346,-38431.36589901041,-38042.53495246589,-27367.498262822424,-36816.60882432566
14196.196400665809,5148.8360940022585,-27449.90914462914,-34273.270877989635,-38276.222440746125,-38015.64580388615,-27260.67927607051,-36762.69641669946
14361.956937546365,5110.413445283585,-27510.996462225496,-34358.788652275645,-38076.88958369369,-38096.02267694744,-27198.407316018023,-36771.25713482584
14390.701280915891,5082.876096114647,-27564.59594542932,-34401.61459465201,-38213.011707426514,-38139.340357701825,-27300.577139923233,-36834.266702445355
14238.977639553266,5130.574718782273,-27503.68744178861,-34309.436000518326,-38427.163771052816,-38064.43966203209,-27371.879204735662,-36841.24044671541
14187.389813350417,5160.838980774758,-27449.61857195122,-34260.32921795001,-38323.4963802691,-38014.10353351874,-27276.25844195586,-36777.87325118462
14341.147463458476,5128.786579225848,-27500.178217909124,-34345.66817828038,-38093.65339203518,-38088.646601277185,-27187.253795534827,-36768.64198072458
14410.70609220339,5094.007264853391,-27563.03132331745,-34400.07232428459,-38164.66488416969,-38130.243197708514,-27265.797825550777,-36830.46690588795
14273.913416136911,5131.669954260583,-27522.239389686514,-34335.8557624645,-38397.34654394943,-38087.461958821055,-27359.6080970297,-36858.09366203471
14189.066194184566,5173.154791969632,-27454.647714453666,-34258.76459583814,-38349.73732825963,-37996.780931565874,-27280.929956547017,-36791.485463557896
14313.923038711911,5138.308422363809,-27497.5407120634,-34331.47482055126,-38111.020697476946,-38060.84103117479,-27177.508434952313,-36767.54674524626
14422.820737698166,5098.231744555444,-27576.509425223998,-34419.27247277171,-38130.13143898624,-38142.17902924765,-27239.556877560244,-36834.73608907891
14310.436166576883,5126.752570480415,-27548.055654532393,-34357.67106505288,-38371.48557561464,-38089.92065071114,-27342.17373635456,-36857.93719982352
14194.654130298393,5177.759251327426,-27467.164691348637,-34265.02308428563,-38388.919936289785,-38004.6710973586,-27294.095134031195,-36802.01313519635
14300.668454249913,5164.817591287803,-27479.72637173252,-34311.380602285935,-38147.07406128336,-38039.20454254205,-27179.09540880864,-36767.32322780171
14438.66812451698,5118.482425031952,-27557.488090692532,-34405.90612958743,-38094.54746181339,-38120.497837126,-27205.24694982135,-36817.1899696815
14352.79272231969,5123.086884389745,-27554.98469531354,-34373.42904489387,-38332.61589200686,-38101.32004038335,-27329.343835037213,-36872.46583371948
14208.936895005334,5169.5561611123285,-27475.05485714136,-34284.15617753937,-38412.523378434584,-38016.74103936447,-27314.770497652353,-36825.92950176352
14278.83079991708,5169.7349750679705,-27464.661295969643,-34302.149331825894,-38186.74840769153,-38018.90915857663,-27191.210054303418,-36770.56423074773
14430.308572090695,5118.661238987594,-27542.73593935203,-34390.8187020801,-38077.35897032726,-38087.68547626561,-27185.130379811573,-36800.56027180675
14386.096821558098,5119.935288421547,-27559.16447152668,-34385.43193166637,-38288.89587985228,-38093.63104029072,-27307.014442326363,-36856.841964345214
14232.830909828057,5177.356919927231,-27478.63113625421,-34287.71010490777,-38420.90528260533,-38016.94220506456,-27326.862791402673,-36838.06649900276
14263.497503220739,5190.03035903339,-27447.47280448351,-34287.57599444103,-38222.37708835329,-37997.339725177255,-27206.43159227748,-36779.9296116745
14429.168633123474,5143.270509632887,-27520.04891872989,-34388.47176891229,-38061.08690036379,-38079.66120000615,-27170.557042426713,-36798.95094620597
14421.077301630654,5124.763265223893,-27557.622201159265,-34407.090772043564,-38238.00095772755,-38112.22769167754,-27287.54607290579,-36865.89442084962
14258.356601996018,5170.494934379451,-27488.979993937017,-34316.94618665531,-38419.56417793801,-38027.24635925846,-27337.36811129667,-36857.825441101246
14241.950421565822,5189.024530532901,-27447.271638783415,-34288.78298864162,-38270.075711020916,-37993.85285304223,-27231.823173978708,-36800.96260320695
14395.216333295863,5138.889567719647,-27515.623273327743,-34390.90810905792,-38069.02176964543,-38077.29191509389,-27171.42876046047,-36800.224995639925
14432.364932580584,5113.25211682941,-27567.50167220851,-34419.65245242744,-38194.23624208406,-38110.14897944319,-27268.48003488541,-36849.8458683307
14279.501352250738,5152.613538815205,-27509.565950580356,-34333.88880895243,-38411.80812261202,-38040.07626057581,-27343.17956485505,-36853.46685093246
14215.932991019845,5179.100355994744,-27459.207470322548,-34292.11339856546,-38320.72476395664,-38007.71093460452,-27262.333305160202,-36801.29787937378
14361.956937546365,5144.991593955946,-27506.77198252344,-34356.329960385556,-38094.05572343537,-38049.41928975812,-27178.737780897354,-36785.58460302169
14439.76335999529,5112.246288328921,-27566.49584370802,-34411.874045357,-38158.4063957222,-38110.26073816547,-27253.92904924501,-36841.84394381571
14303.39536707346,5146.578567812272,-27523.53579086492,-34338.69443401032,-38395.133721248356,-38055.54366773888,-27350.622695758666,-36863.68159814854
14211.887325273434,5189.940952055568,-27453.977162120005,-34269.04639828759,-38360.19794466471,-37989.33780066226,-27286.11556126065,-36808.830417255216
14337.191204689885,5157.106239450722,-27491.10340966027,-34328.79261121662,-38122.68830808262,-38045.84301064527,-27188.23727229086,-36783.95292567646
14452.90618573501,5119.555308765806,-27558.516270937478,-34400.20643475133,-38124.43174415013,-38110.886587010216,-27238.23812463738,-36829.55048436528
14332.095006954076,5133.905128706113,-27550.804919100396,-34362.36493138849,-38377.25232568411,-38073.425063303126,-27360.099835407716,-36876.73501691044
14210.277999672653,5184.598885130749,-27478.452322298566,-34283.30681125007,-38410.019983055594,-38001.22892871248,-27328.963855381473,-36828.321138420244
14306.88223920849,5171.1207832242,-27479.927537432617,-34302.596366715,-38162.45206146861,-38021.591367911264,-27201.737725941864,-36761.89175389907
14447.631174043558,5129.658297259605,-27549.396759199713,-34386.90714680042,-38095.66504903616,-38094.01101994646,-27214.411165048026,-36799.599146795175
14379.234836010319,5147.338527123753,-27538.377349183247,-34353.22306790627,-38319.54012150051,-38072.86626969174,-27325.20876231298,-36844.19087698351
14225.074854502065,5188.041053776867,-27465.62242098122,-34267.92881106482,-38412.70219239023,-38004.22406246949,-27324.918189635064,-36822.97907149542
14289.313768066619,5191.527925911895,-27458.82749066681,-34289.52059620865,-38192.49280601654,-38012.53891140687,-27209.203208589937,-36779.75079771886
14445.418351342483,5143.896358477636,-27536.097471248802,-34377.18413796236,-38072.26277259145,-38079.75060698397,-27194.33929852716,-36790.32317284622
14397.22799029684,5132.072285660778,-27563.366599484278,-34387.33182994507,-38288.024161818525,-38093.65339203518,-27320.604302955187,-36855.05382478879
14240.654020387414,5184.576533386295,-27484.509645045957,-34297.50016897919,-38431.276492032586,-38016.919853320105,-27345.727663722955,-36846.87308631815
14264.883311376967,5197.719359126015,-27449.484461484488,-34289.274727019634,-38236.05635595994,-38004.201710725036,-27223.15069713005,-36781.29306808628
14425.61470575508,5148.92550098008,-27523.468735631555,-34374.99366700574,-38072.73215922501,-38091.82054898984,-27187.52201646829,-36792.245422869375
14430.934420935444,5136.050896173822,-27554.73882612453,-34388.24825146774,-38236.54809433795,-38101.05181944988,-27292.865788086154,-36844.05676651678
14276.461515004816,5188.912771810624,-27482.363877578246,-34297.65663119038,-38419.85475061593,-38036.25411227395,-27342.374902054657,-36836.83715305771
14248.454779202317,5199.999237060456,-27445.28233352689,-34278.61294491446,-38280.826900103915,-37991.90825127462,-27245.413034607536,-36784.064684398734
14404.604065967093,5147.1150096792,-27511.01881396995,-34375.50775712821,-38078.25304010547,-38078.27539184992,-27186.29267052325,-36793.51947230333
14450.648659545024,5122.103407633711,-27561.690218650132,-34411.225844767796,-38193.40922753921,-38117.27918592444,-27282.852206570176,-36853.91388582157
14303.39536707346,5168.438573889563,-27503.732145277518,-34320.7012797238,-38411.67401214528,-38041.35031000976,-27357.46232956199,-36859.41241495757
14232.808558083601,5186.0741002648,-27456.01117086544,-34283.30681125007,-38327.2961768265,-38005.587518881264,-27280.549976891278,-36814.19483592449
14365.756734103768,5138.8001607418255,-27519.221904185048,-34379.64282985244,-38110.461903865566,-38083.4386448191,-27206.722164955398,-36810.350335878175
14454.448456102427,5111.531032506351,-27582.097361337826,-34435.544542735166,-38170.18576505015,-38130.22084596406,-27278.180691979014,-36859.52417367985
14315.845288735067,5138.956622953013,-27546.379273698247,-34374.56898386109,-38408.187140010254,-38077.113101138246,-27376.148387926627,-36879.841909389725
14218.346979421018,5181.424937418096,-27475.278374585912,-34290.72759040923,-38381.54386061953,-38007.845045071255,-27314.636387185623,-36816.653527814575
14335.000733733266,5149.171370169088,-27510.527075591934,-34359.36979763148,-38147.20817175009,-38061.26571431944,-27213.271226080804,-36785.33873383269
14457.309479392707,5115.7331604639485,-27573.335477511344,-34429.01783335422,-38133.5512558879,-38127.69509884061,-27256.320685901726,-36834.0431850008
14355.69844909888,5141.34825960973,-27546.423977187154,-34368.66812332489,-38367.46226161269,-38085.89733670918,-27363.050265675818,-36866.54262143882
14224.739578335237,5180.128536239688,-27472.61851699573,-34287.35247699648,-38402.44274168524,-38014.86349283022,-27333.434204272537,-36829.10344947618
14318.751015514257,5168.684443078571,-27477.178272864614,-34319.2484163342,-38160.529811445456,-38048.63697870219,-27215.573455759702,-36791.15018739107
14454.515511335792,5116.515471519884,-27557.353980225802,-34410.6223476675,-38097.520243825944,-38111.42302887714,-27233.119575157118,-36828.27643493133
14376.79849586469,5121.768131466882,-27562.181957028148,-34389.47759741278,-38332.66059549578,-38100.87300549424,-27355.78594872784,-36874.83511863174
14233.412055183895,5176.999292015946,-27481.268642099934,-34299.06479109106,-38426.64968093034,-38025.36881272421,-27350.376826569656,-36838.737051336415
14294.946407669355,5187.415204932118,-27462.314362801837,-34299.95886086927,-38202.595794510344,-38018.19390275406,-27220.423784306502,-36776.93447791749
14446.021848442775,5136.229710129465,-27544.16645099717,-34395.73608586026,-38082.87985120772,-38108.33848814231,-27209.694946967957,-36811.04323995629
14410.549629992203,5133.4580938170075,-27562.316067494878,-34394.46203642631,-38284.537289683496,-38116.11689521276,-27328.539172236822,-36869.73892089593
14250.667601903393,5181.670806607104,-27488.309441603356,-34299.489474235714,-38429.46600073171,-38020.78670511088,-27350.577992269755,-36840.212266470466
14267.990203856256,5193.494879423962,-27459.6321534672,-34290.50407296468,-38246.4275653872,-38012.605966640236,-27237.411110092537,-36783.684704743
14422.217240597874,5136.766151996392,-27538.17618348315,-34391.37749569148,-38081.941077940595,-38096.78263625892,-27200.888359652563,-36795.4864258154
14432.09671164712,5129.971221681979,-27569.245108276024,-34402.91099583042,-38237.86684726082,-38117.01096499097,-27302.49938994639,-36846.984845040424
14270.962985868811,5177.066347249312,-27504.87208424474,-34305.61385221647,-38427.23082628618,-38032.09668780526,-27357.663495262088,-36843.96735953896
14231.087473760543,5188.8680683217135,-27470.696266972576,-34287.15131129638,-38298.305964267965,-38009.49907416094,-27265.462549383945,-36790.90431820206
14387.504981458782,5144.321041622286,-27528.766099067463,-34365.985913990255,-38090.21122338906,-38077.94011568309,-27197.37913577308,-36787.66331525604
14437.483482060848,5122.684552989549,-27576.442369990633,-34406.53197843218,-38199.15362586422,-38117.368592902254,-27285.892043816097,-36840.05580425928
14289.537285511171,5167.0304139888785,-27515.53386634992,-34319.471933778754,-38414.82560811348,-38055.61072297224,-27360.97155344147,-36849.3988334416
14220.872726544469,5195.841812591769,-27455.117101087228,-34265.42541568582,-38330.38071756133,-37983.68280931507,-27276.54901463378,-36789.33969609019
14363.32039395814,5161.107201708222,-27499.641776042197,-34337.375681087455,-38097.07320893684,-38051.00626361445,-27182.872853621586,-36766.384454534586
14444.501929819815,5121.321096577775,-27569.960364098595,-34418.22194078231,-38152.326721230354,-38139.38506119073,-27256.521851601825,-36831.0927547327
14306.88223920849,5143.091695677244,-27535.985712526526,-34353.08895743954,-38396.69834336023,-38070.474633035024,-27361.97738194196,-36864.195688271015
14210.255647928198,5187.303446209842,-27459.587449978288,-34266.990037797696,-38373.09490121542,-37995.79745480984,-27302.03000331283,-36815.80416152527
14319.22040214782,5152.077096948278,-27483.39205782319,-34323.539951269624,-38127.091601740314,-38044.41249900014,-27190.539501969757,-36787.55155653376
14429.414502312482,5101.204526567999,-27560.505576194,-34410.577644178586,-38117.56975860235,-38128.67857559664,-27234.974769946908,-36830.8915890326
14324.204841161352,5123.310401834297,-27537.058596260384,-34358.632190064454,-38353.13479341684,-38074.90027843718,-27338.820974686263,-36845.017891528354
14178.51617080166,5161.420126130596,-27458.87219415572,-34270.94629656628,-38389.88106130136,-37989.85189078473,-27302.5440934353,-36793.40771358105
14245.906680334412,5140.409486342608,-27468.192871593583,-34306.37381152795,-38153.42195670867,-38008.04621077135,-27182.828150132675,-36750.60412294914
14370.003565550276,5075.544723933306,-27547.541564409923,-34399.98291730677,-38077.96246742755,-38095.642697291696,-27194.629871205078,-36790.501986801864
14255.115599049997,5040.117208971645,-27572.12848331076,-34406.75549587673,-38320.50124651209,-38102.72820028403,-27332.8530589167,-36857.46781318996
14073.395916628351,5058.5573981472735,-27507.934273235118,-34316.610910488474,-38435.63508220138,-38034.130696550696,-27346.957009667996,-36838.26766470286
14103.570771643017,5040.720706071938,-27493.003307938972,-34307.26788130616,-38214.93395744967,-38019.33384172128,-27220.133211628585,-36779.9296116745
14256.747276395236,4982.8967431660585,-27540.16548873967,-34387.08596075606,-38066.22780158852,-38087.37255184323,-27181.978783843373,-36789.00441992336
14186.406336594384,4933.521739664286,-27574.810692645395,-34399.468827184304,-38264.73364409609,-38093.85455773527,-27300.152456778582,-36842.29097870481
13962.330098429931,4922.815254070193,-27526.530924621933,-34321.39418380192,-38437.624387457894,-38039.4280599866,-27350.22036435847,-36837.44065015801
13944.873386010337,4912.645210343028,-27506.414354612156,-34316.16387559937,-38268.15346099776,-38028.43100171459,-27247.15647067505,-36784.15409137656
14095.07710875,4853.860122425571,-27581.538567726442,-34408.09660054405,-38090.457092578064,-38092.64756353469,-27203.257644564826,-36796.313440360245
14090.427945903295,4825.495758711786,-27610.193504118146,-34431.342414777566,-38240.7278705511,-38126.890436040216,-27307.483828959925,-36859.233601001935
13924.332132855909,4862.242026596311,-27542.534773651932,-34339.61085553299,-38436.70796593523,-38052.079147348304,-27364.391370343135,-36853.44449918801
13877.102896821845,4870.959206933881,-27496.892511474194,-34309.905387151884,-38305.32441202694,-38010.81782708381,-27258.82408128072,-36773.24644008237
14023.953857893213,4826.166311045446,-27552.637762145732,-34395.73608586026,-38088.17721464363,-38071.90514468016,-27181.889376865554,-36767.88202141309
14084.996472000656,4807.524956169719,-27609.344137828844,-34438.539676492175,-38189.14004434825,-38119.469656881054,-27272.8386250542,-36829.10344947618
13933.205775404665,4841.074924597136,-27554.6047156578,-34366.94703900183,-38412.188102267755,-38061.600990486266,-27356.88118420615,-36836.18895246851
13845.02814352848,4855.938834659914,-27498.524188819432,-34309.637166218425,-38345.8034212355,-38023.58067316779,-27285.243843226894,-36790.18906237949
13977.28341547053,4812.978781816814,-27547.36275045428,-34372.66908558239,-38118.12855221374,-38078.29774359438,-27199.413144518512,-36784.31055358774
14063.471742090196,4775.360795898533,-27615.08853615386,-34448.687368474886,-38164.46371846959,-38139.58622689083,-27267.49655812938,-36831.15980996607
13936.938516728702,4805.513299168742,-27572.575518199865,-34373.7643210607,-38402.30863121851,-38079.01299941695,-27363.542004053834,-36845.10729850618
13829.046646242936,4845.8358461661155,-27500.4911423315,-34309.30189005159,-38389.70224734572,-38015.75756260843,-27312.803544140286,-36803.68951603049
13946.169787188745,4820.958354587359,-27523.82636354284,-34371.082111726064,-38147.69991012811,-38063.21031608705,-27204.062307365217,-36779.4825767854
14066.489227591663,4774.645540075963,-27602.191579603146,-34442.98767363878,-38129.79616281941,-38144.90594207119,-27245.189517162984,-36820.94506274999
13949.611955834862,4782.178077957401,-27596.156608600213,-34408.23071101078,-38374.79363379403,-38099.73306652702,-27363.69846626502,-36852.08104277623
13808.795965766427,4819.885470853505,-27521.859410030775,-34330.22312286176,-38427.25317803063,-38028.185132525585,-27340.139727609127,-36813.32311789073
13905.020225646524,4821.248927265278,-27522.3958518977,-34355.212373162794,-38192.13517810526,-38050.02278685842,-27219.060327894727,-36769.49134701388
14055.73803850866,4781.060490734636,-27597.94474815664,-34450.58726675359,-38106.68445905262,-38126.51045638448,-27225.51998204231,-36802.63898404109
14000.596284937417,4798.561906643142,-27593.921434154683,-34418.60192043804,-38323.83165643593,-38116.9439097576,-27338.664512475076,-36853.82447884375
13840.513091148507,4838.392715262498,-27527.31323567787,-34328.7032042388,-38436.39504151286,-38045.59714145627,-27347.761672468387,-36829.77400180984
13879.963920112124,4832.737723915306,-27524.96630251006,-34359.52625984267,-38237.44216411617,-38045.10540307825,-27237.992255448375,-36774.565193005226
14055.425114086285,4799.567735143631,-27591.529797497966,-34434.002272367754,-38094.323944368836,-38109.768999787455,-27208.91263591202,-36790.61374552414
14044.338648836452,4806.049741035669,-27609.612358762308,-34435.253970057245,-38282.10094953787,-38122.35303191579,-27320.93957912202,-36845.12965025064
13895.476030764108,4867.181762120934,-27531.40360491319,-34332.41359381838,-38438.339643280466,-38035.650615173654,-27350.421530058567,-36822.26381567286
13900.281655821998,4878.357634348587,-27512.002290725984,-34331.74304148472,-38277.25062099107,-38031.29202500487,-27249.95043873196,-36775.70513197245
14076.771030041104,4850.037974123714,-27574.833044389852,-34421.95468210634,-38093.318115868344,-38102.705848539576,-27193.378173515583,-36779.03554189629
14101.335597197485,4841.566662975152,-27614.03800416446,-34450.67667373141,-38238.38093738329,-38132.72424134305,-27294.475113686934,-36834.758440823374
13949.813121534959,4890.315817632177,-27550.961381311583,-34357.00051271922,-38440.97714912619,-38052.81675491533,-27358.646972018123,-36826.153019208075
13918.61008627535,4918.635477857051,-27508.20249416858,-34325.21633210377,-38326.8491419374,-38019.89263533266,-27269.955250019462,-36770.11719585862
14094.317149438519,4901.871669515571,-27555.118805780272,-34391.75747534722,-38105.41040961867,-38080.041179661894,-27189.690135680456,-36763.65754171104
14166.043897395599,4893.78033802275,-27613.83683846436,-34442.54063874968,-38202.238166599054,-38132.56777913187,-27278.672430357034,-36825.48246687442
14024.266782315586,4937.098018777135,-27574.296602522925,-34375.619515850485,-38441.73710843767,-38082.701037252074,-27376.930698982564,-36848.460060174475
13965.52639788704,4982.203839087944,-27502.748668521486,-34303.490436493215,-38372.893735515325,-38020.362021966226,-27292.239939241404,-36776.46509128393
14117.138280527388,4964.0542225902345,-27538.73497709453,-34368.623419835974,-38133.21597972107,-38054.51548749393,-27192.774676415287,-36755.87913464059
14228.517023148182,4944.965832825403,-27595.776628944473,-34428.16846706491,-38156.7076631436,-38117.3462411578,-27250.553935832257,-36806.304670131765
14108.152879256355,4977.800545430248,-27565.5570704409,-34371.12681521497,-38399.045276528035,-38084.15390064167,-27353.886050449142,-36828.85758028717
14005.133689061844,5027.600232076673,-27493.226825383525,-34291.12992180943,-38397.25713697161,-38005.98985028146,-27302.722907390944,-36778.45439654045
14122.614457918939,5016.670229038028,-27514.416279127156,-34343.61181779049,-38157.60173292181,-38043.76429841093,-27191.254757792325,-36739.76352688832
14258.133084551464,4980.259237320332,-27583.93020438316,-34428.5260949762,-38125.281110439435,-38123.42591564965,-27226.414051820524,-36783.304725087255
14168.27907184113,5002.074539908712,-27572.21789028858,-34388.53882414565,-38366.09880520091,-38102.281165394925,-27345.012407900384,-36835.92073153505
14045.92562269278,5063.4300784385305,-27490.54461604889,-34292.76159915466,-38416.47963720318,-38017.7245161205,-27318.704404676486,-36788.64679201207
14129.342332999986,5058.803267336281,-27495.461999829055,-34323.09291638052,-38185.407303024214,-38038.5786936973,-27201.603615475135,-36741.99870133385
14280.998919129244,5018.927755228014,-27576.21885254608,-34421.082964072586,-38105.11983694075,-38129.46088665258,-27218.43447904998,-36796.022867682324
14238.910584319901,5044.520502629341,-27573.179015300157,-34398.66416438391,-38319.65188022279,-38117.167427202156,-27331.020215871362,-36837.99944376939
14088.148067968854,5095.594238709717,-27496.132552162715,-34294.99677360019,-38435.72448917919,-38037.66227217463,-27339.625637486653,-36799.35327760616
14130.057588822556,5096.734177676938,-27480.598089766278,-34294.72855266673,-38232.63653905827,-38016.53987366437,-27226.615217520623,-36748.25718978133
14293.426489046395,5050.510770143363,-27557.801015114906,-34399.17825450638,-38094.70392402457,-38106.125665441235,-27204.77756318779,-36770.720692958916
14283.68112846388,5056.501037657385,-27575.727114168065,-34398.79827485064,-38279.642257647785,-38116.049839979394,-27314.770497652353,-36824.72250756294
14126.928344598813,5109.631134227649,-27503.754497021975,-34297.99190735721,-38441.78181192659,-38039.87509487571,-27350.399178314114,-36805.70117303147
14132.873908623924,5128.92068969258,-27466.471787270522,-34280.04345655959,-38271.9309058107,-38004.268765958404,-27238.372235104114,-36746.93843685847
14298.098003637553,5087.547610705807,-27535.225753215047,-34373.540803616146,-38084.13154889722,-38089.9430024556,-27187.812589146208,-36761.75764343234
14320.941486470878,5067.229874995933,-27581.65032644872,-34406.867254599005,-38233.06122220292,-38136.52403790045,-27292.418753197046,-36824.700155818486
14171.274205598142,5120.315268077286,-27514.326872149333,-34315.53802675462,-38430.38242225438,-38044.50190597796,-27351.874393448164,-36815.13360919161
14133.030370835111,5148.701983535527,-27460.839147667786,-34273.092064034,-38311.806417918975,-37999.12786473368,-27255.024284723317,-36753.04046309477
14289.336119811072,5112.067474373278,-27513.768078537953,-34355.68175979635,-38087.41725533215,-38066.67483647762,-27173.060437805707,-36733.86266635211
14360.526425901226,5092.979084608446,-27566.428788474655,-34401.79340860766,-38171.68333192865,-38113.30057541139,-27254.040807967285,-36781.94126867548
14218.928124776856,5128.831282714758,-27518.77486929594,-34316.275634321646,-38400.49813991763,-38046.26769378992,-27342.64312298812,-36800.69438227348
14139.780597660614,5160.414297630107,-27459.38628427819,-34263.145537751385,-38346.742194502614,-38001.117169990204,-27274.87263379963,-36755.25328579584
14276.506218493727,5130.887643204647,-27502.882778988216,-34340.683739266846,-38111.98182248853,-38056.43773751709,-27181.33058325417,-36737.48364895387
14370.674117883937,5090.788613651826,-27576.55412871291,-34411.203493023335,-38146.247046738514,-38129.30442444139,-27249.10107244266,-36792.737161247394
14246.510177434706,5112.91684066258,-27550.73786386703,-34354.295951640124,-38393.18911948075,-38084.332714597316,-27362.42441683107,-36830.0422227433
14137.344257514986,5162.537713353362,-27469.265755327437,-34271.818014600045,-38388.80817756751,-38005.85573981473,-27312.982358095927,-36782.85769019815
14253.506273449217,5149.461942847007,-27482.319174089334,-34314.97923314324,-38137.28399721193,-38040.09861232026,-27193.109952582116,-36743.116288556615
14375.926777830933,5097.985875366435,-27566.227622774557,-34402.97805106379,-38112.071229466346,-38127.82920930734,-27234.5277350578,-36797.922765961026
14283.457611019328,5114.928497663557,-27556.5046139365,-34367.796405291134,-38351.19019164922,-38102.48233109502,-27353.439015560034,-36838.84881005869
14143.602745962471,5159.54257959635,-27482.162711878147,-34281.809244371565,-38421.39702098334,-38025.43586795758,-27341.41377704308,-36797.40867583855
14225.588944624538,5157.30740515082,-27477.312383331348,-34304.98800337172,-38190.10116935983,-38041.171496054114,-27222.167220374016,-36754.11334682862
14372.708126629368,5109.34056154973,-27561.064369805383,-34398.910033572916,-38099.755418271474,-38113.83701727832,-27229.967979188918,-36794.52530080382
14311.509050310739,5104.7584539363925,-27578.610489202798,-34385.275469455184,-38327.63145299333,-38121.9507005156,-27357.08234990625,-36851.254028231386
14161.014754893156,5161.509533108418,-27497.138380663204,-34280.22227051524,-38448.956721896735,-38028.65451915914,-27367.31944886678,-36817.74876329288
14195.324682632052,5164.549370354339,-27479.547557776878,-34287.41953222985,-38249.780327055494,-38032.81194362783,-27250.77745327681,-36761.66823645452
14358.380658433516,5118.527128520862,-27546.915715565174,-34376.670047839885,-38101.96824097255,-38113.01000273347,-27220.423784306502,-36777.98500990689
14352.457446152861,5116.895451175625,-27564.752407640506,-34374.770149561184,-38275.037798289995,-38112.58531958882,-27323.711195434476,-36826.376536652635
14191.301368630096,5160.883684263669,-27492.757438749963,-34286.1901862848,-38445.15692533933,-38032.364908738724,-27363.31848660928,-36815.62534756963
14184.28292087113,5171.6125216022165,-27455.228859809504,-34257.64700861538,-38282.637391404794,-38002.95001303554,-27248.11759568663,-36745.195000790955
14337.593536090082,5117.074265131267,-27531.247142702003,-34360.68855055435,-38098.63783104871,-38097.028505447925,-27201.6706707085,-36758.80721316424
14372.015222551254,5104.892564403125,-27564.171262284668,-34384.04612351014,-38227.13800992227,-38118.419124891654,-27296.978509065928,-36814.15013243558
14213.116671218477,5145.595091056239,-27506.12378193424,-34291.48754972071,-38437.60203571344,-38046.93824612359,-27365.75482675491,-36814.46305685795
14161.66295548236,5169.35499541223,-27456.122929587716,-34254.67422660282,-38331.45360129519,-38011.64484162865,-27279.186520479503,-36758.002550363846
14309.8773729655,5128.5854135257505,-27514.460982616067,-34342.42717533436,-38112.71943005556,-38087.37255184323,-27203.235292820373,-36763.34461728867
14385.448620968893,5108.1559190936,-27567.769893141973,-34389.3658386905,-38188.13421584776,-38130.48906689752,-27276.571366378234,-36814.4407051135
14227.064159758587,5128.272489103376,-27539.02554977245,-34325.998643159706,-38432.01409959961,-38076.129624382214,-27376.6624780491,-36832.50091463338
14149.280089054118,5170.986672757468,-27469.779845449906,-34258.250505715674,-38380.96271526369,-38013.41062944062,-27302.320575990747,-36773.49230927137
14293.940579168866,5155.832190016769,-27496.378421351725,-34314.42043953186,-38130.82434306435,-38067.8371271893,-27192.48410373737,-36743.96565484592
14397.429155996939,5119.15297736561,-27570.049771076414,-34393.21033873682,-38155.81359336538,-38142.69311937012,-27256.34303764618,-36805.187082909004
14276.215645815808,5141.996460198934,-27543.83117483034,-34338.24739912122,-38398.21826198319,-38081.11406339575,-27366.671248277577,-36833.26087394487
14155.002135634679,5183.481297907984,-27468.52814776041,-34247.20874395475,-38410.55642492252,-38005.63222237018,-27324.761727423876,-36783.21531810943
14264.458628232316,5166.896303522147,-27482.319174089334,-34290.749942153685,-38169.49286097203,-38037.99754834146,-27210.410202790525,-36737.729518142885
14398.27852228624,5123.44451230103,-27557.152814525703,-34381.14039673095,-38127.806857562886,-38114.44051437861,-27242.10497642815,-36783.23766985389
14310.659684021437,5139.582471797761,-27544.144099252713,-34338.76148924369,-38362.50017434361,-38092.62521179023,-27358.46815806248,-36832.3444524222
14176.057478911576,5200.759196371937,-27455.072397598316,-34235.250560671164,-38420.83822737196,-38001.85477755723,-27330.774346682352,-36783.34942857616
14242.799787855123,5191.371463700708,-27458.156938333148,-34272.086235533505,-38194.348000806334,-38029.48153370399,-27211.48308652438,-36735.494343697355
14384.755716890779,5130.038276915345,-27546.17810799815,-34377.787635062654,-38103.15288342868,-38116.049839979394,-27220.24497035086,-36776.50979477284
14334.173719188419,5133.592204283739,-27556.057579047392,-34357.80517551961,-38316.18735983221,-38117.100371968794,-27336.004654884895,-36827.11414421965
14176.772734734146,5180.441460662063,-27480.933365933106,-34265.42541568582,-38445.045166617056,-38030.688527904575,-27350.5556405253,-36797.52043456083
14213.563706107583,5191.371463700708,-27453.574830719812,-34262.363226695445,-38242.65012057425,-38010.95193755054,-27226.458755309435,-36736.70133789794
14371.03174579522,5138.241367130443,-27532.096508991304,-34363.37075988898,-38090.14416815569,-38091.48527282301,-27195.5686444722,-36754.001588106345
14353.373867675527,5121.522262277873,-27566.78641638594,-34377.40765540691,-38276.11068202385,-38116.67568882414,-27313.630558685134,-36816.362955136654
14192.106031430487,5168.371518656197,-27496.668994029642,-34289.83352063102,-38448.50968700763,-38041.596179198765,-27360.099835407716,-36810.28328064481
14183.455906326284,5188.309274710331,-27457.039351110383,-34259.16692723834,-38289.29821125248,-38022.66425164512,-27254.68900855649,-36760.70711144294
14343.762617559745,5139.627175286672,-27522.038223986416,-34351.07730043856,-38093.139301912706,-38096.93909847011,-27192.95349037093,-36755.29798928476
14381.760583133768,5125.880852446658,-27560.036189560436,-34372.64673383793,-38218.2196638846,-38110.41720037666,-27284.148607748582,-36795.35231534867
14219.978656766256,5162.872989520191,-27506.30259588988,-34287.66540141885,-38435.50097173464,-38044.09957457776,-27362.580879042256,-36809.27745214432
14163.160522360866,5184.196553730554,-27457.888717399685,-34250.94148527879,-38336.616854264365,-38011.15310325064,-27276.6384216116,-36756.63909395207
14319.22040214782,5152.21120741501,-27501.429915598623,-34328.83731470553,-38104.181063673626,-38069.491156278986,-27185.91269086751,-36737.26013150932
14388.577865192638,5119.4882535324405,-27562.293715750424,-34383.48732989876,-38174.03026509646,-38125.50462788399,-27261.662752826545,-36796.24638512688
14247.605412913015,5150.78069576987,-27522.038223986416,-34310.44182901881,-38413.819779613,-38064.50671726545,-27358.579916784754,-36816.31825164775
14152.744609444691,5178.496858894451,-27460.6826854566,-34252.4837556462,-38375.352427405414,-38009.67788811659,-27295.927977076528,-36759.388358520075
14277.981433627778,5147.137361423655,-27499.373555108734,-34317.63909073342,-38139.49681991301,-38060.14812709667,-27199.837827663163,-36743.89859961255
14391.28242627173,5116.828395942259,-27561.01966631647,-34383.82260606559,-38146.537619416435,-38116.80979929087,-27245.457738096447,-36785.830472210706
14275.522741737694,5134.285108361853,-27536.008064270984,-34332.52535254066,-38388.53995663404,-38078.90124069467,-27353.34960858221,-36816.47471385893
14163.719315972248,5183.369539185708,-27454.267734797926,-34243.006615997154,-38401.772189351585,-37993.18230070857,-27307.617939426655,-36766.585620234684
14260.591776441548,5158.335585395764,-27476.373610064224,-34301.814055659066,-38163.18966903564,-38030.28619650438,-27196.596824717144,-36727.62652964908
14394.210504795374,5114.034427885345,-27553.755349368497,-34387.24242296725,-38119.11202896977,-38117.50270336899,-27228.045729165762,-36774.74400696087
14310.056186921143,5125.903204191113,-27545.619314386764,-34338.47091656577,-38351.27959862704,-38097.252022892484,-27344.654779989098,-36821.16858019454
14165.932138673323,5175.524076881895,-27468.930479160605,-34250.74031957869,-38435.255102545634,-38013.768257351905,-27337.256352574394,-36782.29889658676
14229.925183048867,5169.69027157906,-27467.25409832646,-34274.20965125676,-38215.17982663868,-38035.00241458445,-27223.575380274702,-36740.00939607732
14376.8431993536,5116.403712797608,-27547.899192321205,-34372.37851290447,-38110.12662769874,-38128.499761641,-27221.116688384616,-36778.432044796
14330.575088331116,5118.504776776406,-27560.863204105284,-34356.46407085229,-38323.6975459692,-38117.41329639117,-27342.64312298812,-36838.15590598058
14180.818400480557,5177.312216438319,-27476.641830997687,-34254.69657834728,-38450.364881797424,-38023.647728401156,-27353.17079462657,-36792.35718159165
14208.847488027513,5186.498783409451,-27452.121967330215,-34253.7354533357,-38255.21180095814,-38009.67788811659,-27231.890229212077,-36727.93945407146
14375.569149919647,5146.287995134353,-27519.579532096333,-34350.22793414926,-38089.51831931095,-38096.693229281096,-27188.796065902243,-36747.56428570322
14372.261091740262,5135.335640351253,-27549.50851792199,-34367.12585295747,-38259.86096380484,-38113.21116843357,-27295.793866609798,-36808.964527721946
14200.353825134496,5170.2043617015315,-27487.81770322534,-34272.645029144885,-38450.70015796425,-38038.466934975026,-27350.84621320322,-36807.913995732546
14183.277092370641,5187.951646799046,-27441.929571858596,-34244.414775897836,-38297.121321811836,-38004.984021780976,-27240.786223505285,-36740.27761701079
14348.07650423962,5150.579530069773,-27497.25013938548,-34337.91212295439,-38090.23357513351,-38077.44837730508,-27170.981725571364,-36735.919026842006
14385.448620968893,5128.563061781295,-27545.26168647548,-34383.241460709745,-38214.643384771756,-38122.554197615886,-27267.787130807297,-36802.41546659654
14233.859090073001,5173.6688820921045,-27486.431895069112,-34290.52642470913,-38425.08505881847,-38050.87215314772,-27336.228172329447,-36809.27745214432
14168.502589285683,5193.2713619794085,-27441.81781313632,-34253.24371495768,-38334.29227284101,-38014.975251552496,-27251.783281777298,-36764.79748067826
14307.776308986702,5146.712678279005,-27499.932348720118,-34348.305684126106,-38112.562967844366,-38088.95952569956,-27168.634792403554,-36756.63909395207
14387.549684947693,5120.002343654913,-27558.896250593218,-34397.97126030579,-38174.007913352005,-38140.726165858054,-27239.06513918223,-36802.728391018914
14252.791017626647,5157.776791784381,-27519.333662907324,-34318.26493957817,-38411.763419123105,-38070.273467334926,-27333.03187287234,-36823.783734295816
14158.578414747528,5190.7456148559595,-27452.837223152786,-34259.47985166071,-38376.671180328274,-38015.4222864416,-27267.407151151558,-36774.27462032731
14288.330291310585,5164.415259887607,-27482.453284556068,-34314.21927383176,-38136.12170650026,-38052.995568870974,-27160.6105161441,-36745.79849789125
14400.580751965137,5126.461997802496,-27556.12463428076,-34394.12676025948,-38143.00604379249,-38127.33747092932,-27211.505438268836,-36794.14532114808
14291.995977401255,5152.837056259758,-27529.481354890035,-34345.5564195581,-38378.97341000717,-38091.32881061183,-27318.50323897639,-36834.60197861218
14168.010850907667,5195.193612002566,-27454.08892084228,-34264.30782846306,-38401.10163701793,-38016.09283877526,-27276.12433148913,-36794.0335624258
14262.782247398169,5175.859353048725,-27468.505796015954,-34302.84223590401,-38162.07208181287,-38042.222028043514,-27157.28010622026,-36748.838335137174
14400.8489728986,5132.184044383054,-27542.02068352946,-34394.88671957096,-38098.30255488188,-38118.441476636115,-27167.718370880888,-36778.85672794065
14317.320503869118,5136.162654896099,-27544.59113414182,-34364.04131222264,-38332.10180188439,-38088.62424953273,-27286.249671727383,-36823.89549301809
14169.128438130432,5178.765079827915,-27471.500929772967,-34269.1358052654,-38423.90041636234,-38014.416457941115,-27285.690878116,-36800.7390857624
14233.792034839635,5175.859353048725,-27464.974220392018,-34303.28927079312,-38207.20025386813,-38033.504847705946,-27171.361705227104,-36765.199812078456
14389.695452415403,5131.267622860387,-27540.478413162044,-34396.85367308303,-38090.70296176708,-38110.93129049913,-27162.197490000428,-36789.20558562346
14348.50118738427,5134.553329295317,-27554.515308679976,-34382.86148105401,-38293.5897461879,-38099.911880482665,-27275.92316578903,-36830.39985065459
14181.846580725502,5174.697062337049,-27486.074267157826,-34299.154198068885,-38439.61369271442,-38025.43586795758,-27306.478000459436,-36816.20649292547
14208.802784538602,5190.142117755666,-27452.345484774767,-34285.05024731759,-38247.343986909866,-38014.70703061903,-27189.243100791347,-36760.3271317872
14372.574016162636,5148.053782946323,-27523.133459464727,-34392.04804802514,-38081.82931921832,-38114.664031823166,-27153.94969629642,-36782.85769019815
14370.741173117302,5129.5241867928735,-27558.35980872629,-34403.55919641962,-38254.697710835666,-38100.671839794144,-27266.535433117802,-36836.77009782435
14206.277037415151,5173.266550691909,-27488.19768288108,-34311.939395897316,-38440.23954155917,-38023.357155723235,-27317.22918954244,-36828.611711098165
14189.021490695655,5199.1275190267,-27440.588467191275,-34280.08816004851,-38291.86866186484,-37997.9208705331,-27210.991348146363,-36774.47578602741
14347.7859315617,5149.596053313739,-27508.91774999115,-34377.9664490183,-38090.814720489354,-38088.75835999946,-27151.043969517228,-36782.2318413534
14381.268844755752,5118.482425031952,-27566.831119874852,-34432.90703688944,-38214.26340511601,-38138.37923269025,-27252.409130622047,-36846.56016189577
14225.499537646716,5153.284091148865,-27511.287034903413,-34352.93249522835,-38429.33189026498,-38066.60778124425,-27325.07465184625,-36848.12478400765
14160.277147326131,5186.8117078318255,-27448.545688217368,-34285.96666884025,-38334.00170016309,-38002.34651593525,-27234.795955991263,-36781.203661108455
14304.065919407121,5147.1150096792,-27488.19768288108,-34348.19392540383,-38097.29672638139,-38060.59516198577,-27139.890449034032,-36754.67214044001
14375.099763286087,5110.927535406057,-27554.492956935523,-34409.9741470783,-38159.680445156155,-38118.88851152522,-27215.796973204255,-36812.250234156876
14224.04667425712,5121.231689599954,-27524.38515715422,-34344.77410850216,-38400.40873293981,-38057.5329729954,-27314.88225637463,-36835.98778676841
14104.241323976676,5125.1208931351775,-27460.6826854566,-34284.87143336194,-38374.19013669374,-37996.95974552152,-27258.958191747453,-36786.81394896674
14216.24591544222,5084.843049626715,-27494.25500562847,-34347.83629749254,-38137.64162512322,-38055.11898459423,-27161.99632430033,-36765.42332952301
14309.720910754313,5006.410778333042,-27568.708666409097,-34426.447382741855,-38137.306348956394,-38129.39383141921,-27214.724089470397,-36820.65449007208
14205.092394959021,5038.396124648586,-27526.150944966193,-34346.45048933631,-38360.08618594243,-38067.70301672257,-27305.338061492213,-36837.30653969128
14042.125826135378,5051.583653877217,-27466.516490759434,-34289.45354097528,-38396.3630671934,-38009.38731543867,-27275.856110555666,-36793.47476881442
14095.010053516633,4989.043472891268,-27489.091752659293,-34325.39514605941,-38171.43746273965,-38027.67104240311,-27170.266469748793,-36756.460279996434
14207.506383360194,4919.2613267018,-27570.74267515453,-34414.220978524805,-38110.394848632204,-38122.93417727163,-27193.109952582116,-36800.00147819537
14100.732100097192,4901.603448582107,-27580.5103874815,-34398.842978339555,-38347.5021538141,-38114.999307989994,-27321.74424192241,-36865.045054560316
13936.37972311732,4940.02609730078,-27498.92652021963,-34301.32231728105,-38437.11029733542,-38020.51848417741,-27315.709270919477,-36824.61074884066
13980.81499109447,4923.105826748112,-27486.54365379139,-34314.28632906513,-38216.3197656059,-38028.98979532597,-27190.56185371421,-36755.342692773665
14120.17811777331,4856.698793971395,-27564.21596577358,-34413.438667468865,-38097.609650803766,-38108.31613639786,-27181.08471406516,-36789.742027490385
14072.390088127862,4847.378116533532,-27582.96907937158,-34404.788542364666,-38297.30013576748,-38107.86910150875,-27294.5421689203,-36837.86533330266
13902.136850611789,4879.050538426703,-27516.651453572686,-34310.464180763265,-38450.58839924198,-38030.554417437845,-27327.488640247422,-36819.782772038314
13920.509984554052,4880.503401816297,-27483.995554923484,-34307.044363861605,-38263.370187684326,-38020.18320801058,-27211.974824902398,-36767.54674524626
14077.955672497234,4836.33635477261,-27552.280134234446,-34403.04510629715,-38089.67478152213,-38110.037220720915,-27166.08669353565,-36778.94613491847
14075.318166651508,4822.545328443686,-27585.98656487305,-34416.299690759144,-38248.64038808827,-38109.277261409436,-27269.508215130358,-36825.54952210779
13912.12808038331,4857.078773627135,-27531.671825846654,-34338.917951454874,-38449.739032952675,-38034.600083184254,-27335.93759965153,-36828.9916907539
13892.525600496007,4880.369291349565,-27484.375534579223,-34314.97923314324,-38310.08533359591,-38011.91306256212,-27233.09722341266,-36773.24644008237
14051.960593695712,4840.583186219119,-27537.93031429414,-34394.73025735978,-38094.458054835566,-38066.49602252198,-27156.833071331155,-36760.863573654126
14108.55521065655,4828.379133746521,-27587.68529745165,-34439.36669103702,-38203.936899177665,-38103.890490995705,-27248.20700266445,-36815.692402803
13957.94915651669,4868.34405283261,-27543.29473296341,-34362.43198662186,-38433.735183922676,-38054.42608051611,-27340.743224709422,-36841.01692927086
13902.963865156635,4910.119463219579,-27479.748723476976,-34292.20280554328,-38343.00945317858,-38011.33191720628,-27251.49270909938,-36783.41648380953
14050.485378561661,4876.68125351444,-27541.30542770689,-34379.821643808085,-38121.995404004505,-38078.25304010547,-27171.80874011621,-36775.50396627235
14145.23442330771,4852.988404391815,-27607.6677569947,-34442.71945270532,-38176.3101430309,-38128.25389245199,-27240.67446478301,-36819.80512378277
14029.720607962681,4900.709378803895,-27564.774759384964,-34373.116120471495,-38413.64096565735,-38071.100481879774,-27337.658683974587,-36836.39011816861
13950.148397701789,4964.613016201618,-27482.900319445172,-34293.85683463298,-38378.8616512849,-38001.74301883495,-27267.273040684828,-36769.044312124766
14086.561094112527,4951.581949184174,-27512.583436081823,-34358.67689355337,-38137.46281116758,-38040.52329546491,-27163.27037373428,-36741.68577691147
14209.696854316815,4914.031018499258,-27589.3616782858,-34439.50080150375,-38133.953587288095,-38121.727183071045,-27216.422822049004,-36794.81587348174
14105.448318177263,4941.098981034635,-27577.202329302112,-34398.57475740609,-38382.773206564576,-38094.56981355784,-27334.21651532847,-36837.686519347015
13996.52826744655,5004.7343974988935,-27499.239444642004,-34317.884959922434,-38420.88293086087,-38023.80419061234,-27303.952253335985,-36802.90720497456
14102.207315231242,5000.264048607833,-27509.25302615798,-34358.90041099792,-38190.50350076002,-38057.130641595206,-27191.63473744807,-36767.45733826844
14256.34494499504,4965.88706563557,-27576.576480457366,-34439.50080150375,-38109.65724106518,-38128.18683721863,-27195.412182261014,-36794.86057697065
14177.018603923156,4968.613978459118,-27587.50648349601,-34424.86040888553,-38341.4001275778,-38115.848674279296,-27321.40896575558,-36844.70496710599
14043.77985522507,5035.9597845029575,-27506.034374956416,-34317.79555294461,-38439.457230503234,-38029.1239057927,-27317.11743082016,-36799.55444330626
14111.527992669106,5044.274633440332,-27492.600976538775,-34337.64390202092,-38220.141913907755,-38038.69045241958,-27193.959318871417,-36752.21344854992
14272.102924836032,4993.603228760151,-27572.530814710954,-34444.79816493966,-38097.743761270496,-38131.159619231184,-27186.47148447889,-36789.65262051256
14246.465473945795,4993.849097949159,-27591.082762608858,-34431.58828396658,-38300.29526952449,-38133.73006984354,-27303.773439380344,-36839.787583325815
14104.442489676774,5058.222121980443,-27505.989671467505,-34317.77320120015,-38447.19093408477,-38043.18315305509,-27324.627616957143,-36812.026716712324
14123.799100375069,5070.515581430863,-27480.128703132716,-34310.77710518564,-38263.86192606234,-38029.995623826464,-27211.19251384646,-36759.83539340918
14289.157305855431,5028.5613570882515,-27551.564878411875,-34407.4707516993,-38093.608688546265,-38114.507569611975,-27168.768902870288,-36771.838280181684
14307.68690200888,5020.8723569956255,-27586.008916617506,-34429.26370254323,-38252.64135034577,-38137.57456988985,-27273.084494243205,-36821.28033891682
14159.807760692569,5077.981064078935,-27509.00715696897,-34321.90827392438,-38437.11029733542,-38041.57382745431,-27318.391480254115,-36795.262908370845
14130.795196389581,5098.365855022175,-27466.62824948171,-34295.30969802257,-38306.86668239435,-38014.63997538567,-27222.569551774213,-36744.09976531265
14287.59268374356,5056.255168468377,-27528.25200894499,-34383.19675722084,-38097.69905778159,-38090.34533385579,-27156.05076027522,-36755.38739626257
14340.70042856937,5032.450560623474,-27583.818445660883,-34425.888589130474,-38207.31201259041,-38136.613444878276,-27253.39260737808,-36816.720583047936
14199.951493734301,5078.0481193123005,-27530.330721179336,-34343.6565212794,-38432.05880308853,-38065.579600999314,-27337.234000829936,-36819.84982727168
14140.69701918328,5119.331791321253,-27466.87411867072,-34282.32333449404,-38355.86170624039,-38008.98498403847,-27255.851299268164,-36759.32130328671
14292.241846590263,5096.287142787832,-27504.089773188804,-34348.84212599303,-38112.764133544464,-38070.7875574574,-27156.52014690878,-36739.76352688832
14376.597330164592,5054.377621934131,-27577.98464035805,-34423.49695247375,-38166.34126500384,-38137.70868035658,-27234.281865868794,-36810.350335878175
14249.52766293617,5087.569962450262,-27543.205325985593,-34364.577754089565,-38409.036506299555,-38088.73600825501,-27339.156250853095,-36837.75357458038
14146.620231463938,5128.96539318149,-27471.16565360614,-34297.29900327909,-38392.11623574689,-38016.159894008626,-27281.153473991573,-36778.76732096283
14276.260349304719,5117.878927931658,-27486.320136346836,-34341.08607066704,-38144.235389737536,-38068.73119696751,-27164.767940612786,-36742.93747460097
14397.093879830109,5077.131697789633,-27558.06923604837,-34417.17140879291,-38126.197531962105,-38132.008985520486,-27205.358708543627,-36789.07147515672
14295.147573369453,5097.918820133069,-27541.238372473526,-34374.2113559498,-38371.48557561464,-38089.80889198886,-27323.890009390117,-36832.36680416665
14169.307252086075,5150.8924544921465,-27458.3804557777,-34280.758712382165,-38416.79256162555,-38012.33774570677,-27292.798732852785,-36786.74689373337
14253.573328682582,5138.9119194641025,-27467.67878147111,-34315.67213722136,-38181.98748612255,-38034.823600628806,-27170.914670337996,-36735.762564630815
14386.61091168057,5080.998549580401,-27560.080893049348,-34420.300653016646,-38115.22282543455,-38129.77381107495,-27194.7192781829,-36785.405789066055
14321.634390548992,5094.6554654425945,-27558.337456981833,-34386.05778051112,-38338.47204905415,-38110.12662769874,-27310.724831905944,-36824.87896977412
14166.602691006981,5144.008117199912,-27482.20741536706,-34294.77325615564,-38446.63214047338,-38019.780876610384,-27314.569331952254,-36791.485463557896
14220.068063744076,5149.327832380275,-27459.095711600272,-34299.02008760215,-38226.55686456643,-38023.424210956604,-27187.611423446113,-36737.90833209852
14380.307719744173,5106.77011093737,-27537.438575916123,-34395.84784458254,-38093.56398505736,-38113.23352017802,-27172.546347683234,-36765.065701611726
14361.532254401714,5112.268640073376,-27551.07314003386,-34387.309478200616,-38279.41874020323,-38117.41329639117,-27279.16416873505,-36812.63021381262
14190.809630252079,5148.634928302161,-27488.86823521474,-34306.418515016856,-38443.63700671637,-38036.41057448513,-27318.682052932032,-36797.3863240941
14205.070043214566,5167.991539000456,-27454.89358364267,-34293.65566893288,-38272.75792035555,-38032.029632571895,-27214.567627259214,-36752.07933808319
14380.285367999717,5133.323983350276,-27513.522209348943,-34378.25702169621,-38085.96439194255,-38110.97599398804,-27162.398655700526,-36768.01613187983
14384.08516455712,5105.898392903614,-27563.21013727309,-34415.33856574757,-38245.22057118661,-38139.80974433538,-27277.443084411992,-36832.456211144476
14225.499537646716,5153.127628937677,-27496.043145184893,-34310.531235996634,-38445.112221850424,-38056.996531128476,-27338.97743689745,-36817.279376659324
14201.896095501912,5187.728129354493,-27436.073414811304,-34254.473060902725,-38309.414781262254,-38005.05107701434,-27229.453889066448,-36750.090032826665
14354.26793745374,5146.869140490191,-27496.26666262945,-34342.98596894574,-38096.626174047735,-38075.503775537465,-27158.151824254015,-36749.77710840429
14403.70999618888,5115.1073116192,-27556.03522730294,-34392.696248614346,-38201.27704158748,-38126.77867731794,-27252.87851725561,-36808.830417255216
14259.273023518685,5157.374460384186,-27498.837113241807,-34306.70908769478,-38424.1686372958,-38058.47174626252,-27333.925942650552,-36817.10056270368
14194.899999487401,5201.675617894604,-27424.629321650187,-34238.62567408391,-38343.43413632323,-37994.61281235371,-27245.92712473001,-36756.08030034069
14324.07073069462,5157.061535961811,-27476.23949959749,-34318.46610527827,-38113.50174111149,-38064.327903309815,-27158.397693443025,-36746.871381625104
14410.236705569829,5119.242384343432,-27547.094529520815,-34380.49219614174,-38161.51328820149,-38132.9477587876,-27233.186630390483,-36811.44557135649
14278.026137116687,5142.44349508804,-27514.863314016264,-34320.187189601325,-38403.40386669682,-38085.852633220275,-27336.11641360717,-36833.372632667146
14166.781504962624,5180.26264670642,-27444.455318982044,-34250.24858120067,-38395.02196252608,-38011.35426895074,-27282.91926180354,-36771.32419005921
14280.618939473503,5163.320024409298,-27466.158862848148,-34296.628450945434,-38151.20913400759,-38045.731251922996,-27172.591051172145,-36744.27857926829
14403.106499088586,5120.7175994774825,-27539.07025326136,-34376.62534435098,-38125.79520056191,-38119.08967722532,-27207.727993455886,-36787.26098385584
14306.859887464034,5137.101428163222,-27528.207305456082,-34340.12494565546,-38365.562363333986,-38088.53484255491,-27323.510029734378,-36824.275472673835
14174.671670755348,5184.844754319758,-27451.33965627428,-34252.506107390655,-38415.898491847336,-38004.134655491674,-27297.26908174385,-36780.510757030344
14252.500444948728,5170.606693101728,-27461.15207209016,-34289.297078764095,-38185.65317221322,-38040.65740593164,-27183.453998977424,-36746.08907056917
14391.260074527274,5115.643753486127,-27549.039131288428,-34394.32792595958,-38110.86423526576,-38135.294691955416,-27201.42480151949,-36796.49225431588
14321.902611482456,5113.475634273963,-27557.73395988154,-34377.117082729,-38337.01918566456,-38108.58435733132,-27321.632483200134,-36841.1957432265
14166.267414840153,5159.408469129618,-27480.732200233007,-34277.964744325254,-38449.582570741484,-38017.74686786495,-27326.549866980302,-36800.5379200623
14202.186668179831,5156.011003972412,-27468.259926826948,-34289.45354097528,-38248.126297965806,-38025.592330168765,-27210.678423723988,-36744.61385543512
14367.097838771087,5113.609744740695,-27533.92935203664,-34379.84399555254,-38100.940060727604,-38107.35501138628,-27182.604632688122,-36765.959771389935
14346.757751316758,5108.938230149535,-27559.052712804405,-34386.750684589235,-38294.66262992175,-38128.075078496346,-27301.180637023528,-36830.28809193231
14188.485048828728,5157.68738480656,-27484.755514234963,-34294.86266313346,-38456.60101850045,-38044.2783885334,-27341.63729448763,-36823.31434766226
14189.08854592902,5168.304463422831,-27448.43392949509,-34273.98613381221,-38282.793853615985,-38019.55735916583,-27226.414051820524,-36758.80721316424
14356.212539221353,5126.439646058041,-27513.701023304588,-34359.4592046093,-38096.2908978809,-38091.32881061183,-27170.825263360177,-36753.62160845061
14380.866513355555,5118.7282942209595,-27552.436596445634,-34388.695286356844,-38241.197257184656,-38128.90209304119,-27275.364372177646,-36816.5417690923
14214.18955495233,5159.475524362984,-27494.120895161737,-34294.50503522218,-38447.95089339625,-38053.46495550453,-27340.40794854259,-36816.07238245873
14174.0458219106,5183.950684541546,-27443.225973037002,-34255.948276036775,-38327.07265938195,-38011.398972439645,-27241.546182816768,-36750.246495037856
14329.92688774191,5146.39975385663,-27500.424087098134,-34344.0588526796,-38108.76317128696,-38083.52805179692,-27165.32673422417,-36742.2222187784
14389.22606578184,5118.258907587398,-27562.316067494878,-34397.07719052758,-38207.647288757245,-38127.873912796254,-27258.15352894706,-36809.746838777886
14247.381895468461,5161.822457530792,-27512.561084337365,-34320.544817512615,-38436.573855468494,-38069.5358597679,-27348.23105910195,-36836.52422863534
14161.03710663761,5187.102280509745,-27454.513603986932,-34268.33114246502,-38377.989933251134,-38030.979100582495,-27276.10197974467,-36780.80132970826
14303.64123626247,5161.084849963767,-27484.91197644615,-34325.641015248424,-38132.5007238985,-38056.214220072536,-27170.37822847107,-36738.60123617664
14395.37279550705,5117.7895209538365,-27556.12463428076,-34403.40273420844,-38164.39666323622,-38129.66205235267,-27233.901886213054,-36792.89362345858
14264.369221254496,5138.308422363809,-27530.17425896815,-34349.04329169313,-38410.243500500146,-38083.326886096824,-27344.14068986663,-36823.47080987344
14149.011868120655,5176.552257126839,-27460.548574989865,-34266.073616275025,-38411.53990167855,-38015.042306785865,-27298.587834666712,-36779.99666690787
14258.937747351856,5154.848713260736,-27479.256985098957,-34314.174570342846,-38170.6104481948,-38055.61072297224,-27187.365554257103,-36747.13960255857
14386.543856447204,5111.687494717538,-27555.051750546903,-34392.897414314444,-38144.16833450417,-38137.1498867452,-27224.73767098638,-36796.939289204995
14292.443012290361,5127.959564681001,-27543.2500294745,-34354.94415222933,-38381.76737806408,-38106.34918288579,-27339.446823531012,-36837.73122283593
14158.265490325153,5177.245161204954,-27459.654505211653,-34259.01046502715,-38433.35520426693,-38021.97134756701,-27313.31763426276,-36788.91501294554
14235.647229629425,5168.483277378474,-27462.046141868374,-34287.73245665222,-38202.260518343515,-38040.277426275905,-27193.132304326573,-36742.624550178596
14384.822772124146,5125.277355346365,-27536.812727071374,-34382.32503918708,-38108.20437767558,-38118.083848724826,-27195.434534005468,-36778.52145177382
14318.035759691687,5117.498948275918,-27551.69898887861,-34369.58454484756,-38330.6489384948,-38109.5454823429,-27316.73745116442,-36825.97420525244
14173.33056608803,5176.909885038124,-27466.918822159627,-34266.87827907542,-38445.91688465082,-38024.698260390556,-27320.89487563311,-36787.30568734476
14211.105014217499,5175.16644897061,-27450.5796969628,-34270.96864831074,-38238.269178661016,-38025.033536557385,-27201.156580586026,-36731.0686982952
14368.46129518286,5123.936250679047,-27532.54354388041,-34375.93244027286,-38097.83316824832,-38114.529921356436,-27182.93990885495,-36762.60700972164
14347.160082716953,5111.82160518427,-27562.628991917252,-34388.18119623437,-38286.973629829125,-38120.74370631501,-27301.247692256893,-36819.91688250505
14182.51713305916,5152.814704515303,-27491.93042420512,-34296.31552652306,-38452.75651845414,-38042.84787688826,-27337.54692525231,-36808.76336202185
14189.289711629119,5175.434669904073,-27449.640923695675,-34268.12997676492,-38281.92213558223,-38009.61083288322,-27220.043804650762,-36745.30675951323
14333.8831465105,5114.928497663557,-27529.883686290228,-34369.02575123617,-38103.80108401788,-38103.51051133997,-27174.446245961935,-36763.456376010945
14343.27087918173,5085.893581616114,-27579.057524091902,-34406.2190540098,-38253.3789579128,-38145.196514749114,-27284.372125193135,-36830.73512682142
14188.28388312863,5135.089771162245,-27502.97218596604,-34302.05992484807,-38446.76625094012,-38058.5835049848,-27338.329236308247,-36813.74780103538
14147.313135542052,5165.242274432454,-27443.270676525914,-34247.99105501069,-38323.67519422474,-38004.827559569785,-27236.24881938086,-36747.25136128085
14283.9717011418,5108.379436538153,-27494.523226561934,-34332.212428118284,-38099.844825249296,-38078.34244708329,-27155.916649808485,-36745.59733219115
14329.50220459726,5061.261959226365,-27556.59402091432,-34389.43289392387,-38186.07785535787,-38120.34137491481,-27237.545220559266,-36796.40284733807
14152.901071655879,5081.713805402971,-27518.86427627376,-34318.577864000545,-38422.671070417295,-38079.86236570625,-27333.21068682798,-36813.25606265737
14042.148177879833,5084.440718226519,-27459.788615678386,-34259.81512782754,-38369.98800873614,-38014.14823700765,-27264.434369139002,-36761.10944284313
14145.65910645236,5010.94818245747,-27506.414354612156,-34330.02195716166,-38136.45698266709,-38053.688472949085,-27169.104179037116,-36743.04923332325
14213.921334018867,4939.087324033657,-27580.845663648328,-34424.972167607804,-38162.29559925742,-38132.54542738741,-27230.39266233357,-36802.2366526409
14058.107323420922,4932.828835586171,-27554.716474380075,-34342.203657889804,-38401.83924458495,-38093.38517110171,-27334.88706766213,-36829.796353554295
13932.535223071007,4976.9064756520365,-27472.10442687326,-34251.813203312544,-38396.89950906033,-38004.24641421395,-27277.644250112087,-36770.2289545809
14016.577782222961,4937.790922855249,-27486.14132239119,-34296.069657334054,-38149.10807002879,-38032.56607443882,-27160.8116818442,-36737.70716639843
14115.148975270866,4858.799857950194,-27582.253823549014,-34404.7214871313,-38125.16935171716,-38133.3500901878,-27208.018566133807,-36800.94025146249
14001.445651226719,4845.947604888393,-27584.287832294445,-34380.156919974914,-38370.30093315851,-38128.276244196444,-27334.194163584016,-36845.196705484
13843.016486527502,4872.8367534681265,-27507.643700557197,-34290.92875610933,-38439.21136131422,-38018.28330973188,-27314.614035441165,-36787.10452164466
13913.603295517361,4864.097221386101,-27501.83224699882,-34307.71491619527,-38205.61328001181,-38021.14433302216,-27190.09246708065,-36736.99191057586
14050.038343672555,4810.4977381822755,-27584.868977650283,-34409.19183602236,-38111.087752710315,-38116.183950446124,-27197.647356706544,-36778.78967270728
13984.033642296034,4803.591049145585,-27600.135219113257,-34406.53197843218,-38330.20190360569,-38124.163523216674,-27320.581951210734,-36829.77400180984
13825.000980496525,4846.752267688784,-27520.719471063552,-34307.98313712873,-38454.74582371066,-38034.734193650984,-27328.74033793692,-36788.64679201207
13861.613137914317,4852.362555547065,-27499.48531383101,-34301.47877949224,-38255.39061491378,-38018.3727167097,-27213.517095269814,-36740.031747821784
14028.200689339721,4811.168290515935,-27569.446273976122,-34394.03735328166,-38105.67863055213,-38110.26073816547,-27185.84563563414,-36769.93838190298
14013.761462421593,4797.533726398197,-27597.78828594545,-34413.438667468865,-38286.32542923992,-38130.77963957544,-27296.06208754326,-36826.935330264016
13845.855158073326,4837.610404206563,-27530.30836943488,-34326.71389898228,-38463.19478311477,-38060.70692070806,-27340.497355520412,-36814.2395394134
13846.97274529609,4863.761945219272,-27490.25404337097,-34303.42338125985,-38301.88224338082,-38034.35421399525,-27233.611313535133,-36756.14735557406
14011.43688099824,4824.71344765585,-27561.287887249935,-34402.77688536369,-38110.43955212111,-38114.06053472287,-27181.107065809618,-36767.97142839091
14053.614622785404,4819.214918519845,-27598.525893512477,-34421.351185006046,-38239.96791123962,-38145.17416300466,-27275.05144775527,-36824.16371395156
13906.1825163582,4869.416936566465,-27540.187840484126,-34344.21531489078,-38450.6778062198,-38069.96054291255,-27345.235925344936,-36822.71085056196
13869.525655451496,4905.49265211733,-27490.321098604334,-34305.81501791657,-38349.78203174854,-38030.085030804286,-27256.566555090732,-36762.27173355481
14029.407683540307,4880.861029727582,-27541.864221318272,-34380.91687928639,-38127.248063951505,-38093.92161296864,-27175.407370973513,-36750.20179154895
14124.380245730907,4875.898942458504,-27591.663907964696,-34432.325891533605,-38199.377143308775,-38143.050747281406,-27251.738578288387,-36803.73421951941
13995.276569757054,4923.441102914942,-27548.21211674358,-34360.0627017096,-38436.88677989087,-38087.86429022125,-27346.241753845425,-36821.50385636138
13912.731577483604,4964.657719690528,-27485.381363079712,-34296.762561412164,-38390.93159329076,-38024.09476329026,-27276.571366378234,-36765.13275684509
14051.848834973436,4945.055239803224,-27525.860372288273,-34365.31536165659,-38155.07598579836,-38074.85557494826,-27177.41902797449,-36744.166820546016
14171.609481764972,4928.35848669511,-27590.680431208664,-34429.3754612655,-38171.30335227291,-38142.760174603485,-27230.01268267783,-36793.85474847016
14065.304585135531,4963.406022001031,-27559.611506415786,-34371.32798091507,-38408.74593362164,-38104.56104332936,-27335.110585106682,-36821.392097639095
13946.862691266859,5003.862679465137,-27494.97026145104,-34298.88597713542,-38434.070460089504,-38035.71767040702,-27303.795791124798,-36784.89169894358
14071.160742182821,5005.0249701768125,-27501.944005721096,-34337.77801248765,-38189.385913537255,-38064.43966203209,-27186.538539712255,-36752.124041572104
14218.503441632205,4971.5644087272185,-27571.323820510366,-34415.56208319212,-38133.28303495444,-38142.71547111458,-27205.872798666096,-36791.32900134671
14126.548364943072,4973.352548283643,-27573.26842227798,-34390.84105382455,-38375.84416578343,-38123.58237786083,-27325.700500691,-36827.89645527559
13982.804296350992,5021.431150607008,-27493.15977015016,-34297.23194804573,-38446.453326517745,-38026.776972624895,-27306.142724292604,-36771.905335415046
14063.807018257025,5025.432112864508,-27488.935290448106,-34317.952015155795,-38216.47622781709,-38044.36779551122,-27181.732914654367,-36721.45744817942
14221.118595733476,4981.175658843,-27570.966192599084,-34413.10339130204,-38120.87781678174,-38129.3491279303,-27185.28684202276,-36762.2270300659
14185.467563327262,4998.073577651212,-27573.715457167087,-34389.52230090169,-38328.45846753818,-38113.16646494466,-27296.933805577017,-36809.76919052234
14039.130692378367,5058.5573981472735,-27490.522264304433,-34286.30194500708,-38450.05195737505,-38023.357155723235,-27305.650985914588,-36774.47578602741
14069.350250881942,5059.831447581226,-27473.289069329392,-34299.22125330225,-38259.05630100445,-38023.13363827868,-27193.42287700449,-36726.64305289305
14235.736636607247,5013.675095281016,-27547.273343476456,-34396.76426610521,-38108.40554337568,-38110.01486897646,-27167.696019136434,-36756.75085267435
14237.524776163671,5012.065769680235,-27575.59300370133,-34411.78463837918,-38282.995019316084,-38134.020642521464,-27282.11459900315,-36819.782772038314
14084.16945745581,5068.280406985332,-27498.54654056389,-34294.41562824436,-38456.19868710026,-38040.970330354015,-27320.179619810537,-36783.684704743
14073.910006750824,5086.295913016309,-27462.068493612827,-34277.204785013775,-38302.999830603585,-38013.38827769617,-27211.7736592023,-36714.6178143761
14233.836738328546,5041.748886316882,-27536.32098869336,-34378.59229786305,-38116.02748823494,-38094.390999602205,-27164.23149874586,-36736.79074487576
14280.73069819578,5037.323240914731,-27574.654230434207,-34406.93430983237,-38241.823106029406,-38129.79616281941,-27259.24876442537,-36796.22403338242
14130.83989987849,5085.893581616114,-27511.845828514797,-34320.88009367944,-38452.533001009586,-38060.86338291924,-27330.036739115327,-36798.258042127854
14091.970216270713,5126.864329202692,-27447.89748762816,-34266.63240988641,-38342.718880500666,-38005.92279504809,-27233.410147835035,-36729.88405583907
14237.368313952484,5086.452375227496,-27506.749630778984,-34353.33482662855,-38121.63777609322,-38079.549441283874,-27157.548327153723,-36728.58765466066
14315.398253845962,5062.558360404773,-27566.719361152576,-34405.86142609852,-38197.3654863078,-38135.36174718878,-27240.786223505285,-36789.80908272375
14184.461734826773,5103.260887057887,-27518.506648362476,-34328.12205888296,-38429.6224629429,-38079.03535116141,-27331.958989138486,-36802.84014974119
14090.427945903295,5132.876948461169,-27457.285220299393,-34266.990037797696,-38394.48552065915,-38018.48447543198,-27271.20694770896,-36757.086128841176
14216.804709053602,5101.942134135024,-27497.63011904122,-34331.67598625136,-38158.96518933358,-38069.1335283677,-27172.65810640551,-36737.64011116506
14322.193184160375,5059.742040603404,-27573.849567633817,-34411.58347267908,-38175.72899767506,-38138.781564090445,-27229.38683383308,-36793.89945195907
14216.849412542513,5095.862459643181,-27542.11009050728,-34351.300817883115,-38413.93153833527,-38095.95562171407,-27331.55665773829,-36816.85469351467
14100.687396608282,5141.929404965568,-27463.633115724697,-34259.88218306091,-38431.29884377705,-38016.96455680902,-27285.4897124159,-36761.89175389907
14203.505421102695,5124.360933823697,-27473.311421073846,-34307.02201211715,-38187.642477469744,-38031.64965291615,-27164.432664445958,-36714.32724169818
14333.860794766046,5074.136564032622,-27553.21890750157,-34391.73512360277,-38136.680500111645,-38126.28693893993,-27192.551158970735,-36766.585620234684
14259.54124445215,5095.996570109913,-27540.187840484126,-34358.22985866426,-38363.796575522014,-38099.621307804744,-27305.6956894035,-36814.28424290231
14114.813699104036,5145.058649189312,-27464.929516903107,-34273.60615415647,-38446.69919570675,-38023.647728401156,-27295.927977076528,-36777.5826785067
14183.992348193211,5144.365745111197,-27449.14918531766,-34286.279593262625,-38216.18565513917,-38032.029632571895,-27168.120702281085,-36720.541026656756
14330.84330926458,5087.1452793056105,-27532.230619458034,-34384.649620610435,-38109.88075850973,-38111.087752710315,-27165.214975501895,-36757.13083233009
14287.860904677023,5089.156936306588,-27549.50851792199,-34381.5650798756,-38321.88705466832,-38118.73204931403,-27285.579119393722,-36820.90035926108
14127.88946961039,5135.201529884521,-27478.564081020842,-34288.15713979687,-38457.13746036738,-38034.19775178406,-27302.231169012925,-36799.19681539498
14155.0915426125,5144.097524177733,-27456.368798776723,-34284.71497115075,-38265.158327240744,-38026.17347552461,-27185.778580400776,-36746.245532780355
14323.847213250068,5109.072340616267,-27521.63589258622,-34371.573850104076,-38100.470674094046,-38100.62713630523,-27144.94194328093,-36760.170669576015
14329.971591230822,5110.324038305765,-27545.015817286472,-34376.893565284445,-38266.67824586371,-38108.6961160536,-27248.877554998107,-36817.05585921477
14172.9952899212,5160.302538907831,-27474.831339696808,-34275.26018324616,-38445.31338755052,-38033.9295308506,-27293.089305530706,-36800.42616134002
14157.863158924958,5175.457021648529,-27432.608894420733,-34247.99105501069,-38294.05913282146,-37999.75371357843,-27184.772751900287,-36737.84127686516
14307.709253753335,5119.354143065709,-27505.587340067308,-34348.86447773749,-38100.895357238696,-38074.36383657024,-27128.379300639546,-36749.15125955955
14339.493434368782,5085.513601960373,-27564.104207051303,-34402.262795241215,-38229.015556456514,-38124.14117147221,-27232.024339678806,-36818.30755690426
14184.841714482513,5123.48921578994,-27505.766154022953,-34316.45444827729,-38446.56508524002,-38053.062624104336,-27302.40998296857,-36822.174408695035
14129.387036488895,5155.183989427565,-27448.545688217368,-34263.39140694039,-38347.07747066945,-37996.49035888795,-27205.71633645491,-36759.20954456444
14277.333233038573,5116.9625064089905,-27502.994537710496,-34353.7595097732,-38122.84477029381,-38076.50960403796,-27126.41234712748,-36762.71876844392
14355.743152587791,5087.569962450262,-27569.40157048721,-34417.46198147082,-38191.777550193976,-38138.580398390346,-27205.269301565804,-36821.95089125048
14212.580229351548,5125.925555935569,-27521.59118909731,-34338.73913749923,-38422.55931169502,-38065.356083554754,-27293.02225029734,-36842.46979266045
14120.401635217862,5173.847696047747,-27449.551516717856,-34273.58380241201,-38385.03073275456,-38010.080219516785,-27225.698795997956,-36796.91693746053
14252.969831582288,5152.859408004214,-27483.39205782319,-34338.96265494378,-38148.07988978385,-38053.733176438,-27125.160649437985,-36762.65171321055
14360.638184623504,5105.160785336589,-27559.566802926878,-34416.90318785944,-38153.42195670867,-38118.3967731472,-27177.329620996672,-36809.00923121086
14249.304145491618,5129.144207137133,-27532.38708166922,-34366.34354190154,-38391.9597735357,-38079.996476172986,-27286.987279294408,-36851.41049044258
14129.185870788799,5178.876838550191,-27449.99855160696,-34277.00361931368,-38410.80229411153,-38003.59821362474,-27241.993217705873,-36803.95773696396
14219.710435832792,5152.613538815205,-27470.09276987228,-34326.4009745599,-38179.72995993256,-38034.62243492871,-27134.101347220105,-36769.98308539189
14356.167835732442,5102.657389957594,-27547.87684057675,-34420.34535650556,-38125.750497073,-38113.16646494466,-27157.07894052016,-36805.120027675635
14286.63155873198,5121.790483211337,-27536.74567183801,-34383.397922920936,-38351.100784671406,-38096.35795311427,-27272.458645398456,-36850.6505311311
14138.640658693394,5169.712623323515,-27460.43681626759,-34294.90736662238,-38436.70796593523,-38004.00054502494,-27265.19432845048,-36815.312423147254
14205.405319381396,5169.645568090149,-27448.836260895285,-34314.71101220978,-38214.28575686047,-38019.89263533266,-27145.32192293667,-36768.75373944685
14363.543911402692,5122.841015200736,-27520.004215240984,-34403.55919641962,-38094.43570309111,-38096.04502869189,-27135.151879209505,-36797.766303749835
14327.937582485389,5126.283183846854,-27533.571724125355,-34389.29878345714,-38295.84727237788,-38098.503720581975,-27251.135081188095,-36846.42605142904
14163.764019461158,5165.9798819994785,-27463.94604014707,-34297.746038168196,-38440.97714912619,-38018.171551009604,-27278.091285001196,-36824.52134186284
14190.250836640696,5176.999292015946,-27437.168650289615,-34289.40883748637,-38258.6316178598,-38006.66040261512,-27167.718370880888,-36773.24644008237
14361.308736957162,5136.408524085107,-27503.910959233162,-34378.011152507206,-38090.032409433414,-38083.058665163364,-27127.149954694505,-36785.02580941031
14367.075487026632,5126.037314657845,-27538.377349183247,-34390.77399859119,-38253.490716635075,-38100.045990949395,-27236.070005425216,-36839.04997575879
14199.482107100739,5161.218960430499,-27484.77786597942,-34311.22414007475,-38450.87897191989,-38036.2764640184,-27300.443029456503,-36840.569894381755
14180.90780745838,5181.849620562747,-27443.561249203834,-34291.93458460982,-38310.465313251654,-38007.80034158234,-27202.117705597604,-36788.22210886742
14339.225213435318,5137.459056074507,-27506.570816823343,-34365.04714072313,-38108.07026720885,-38078.92359243913,-27138.57169611117,-36786.881004200106
14383.839295368112,5110.9722388949685,-27559.387988971233,-34402.6204231525,-38225.528684321485,-38113.83701727832,-27233.365444346124,-36835.56310362376
14227.511194647694,5143.918710222091,-27509.63300581372,-34329.619625761465,-38448.91201840783,-38056.773013683916,-27315.821029641753,-36848.01302528537
14168.9943276637,5174.093565236755,-27449.417406251123,-34281.183395526816,-38357.91806673027,-38012.315393962315,-27230.325607100203,-36784.80229196576
14314.370073601018,5137.414352585596,-27495.596110295788,-34343.58946604603,-38127.06924999586,-38068.59708650078,-27144.74077758083,-36773.939344160484
14402.435946754927,5112.58156449575,-27552.481299934545,-34400.76522836271,-38183.440349512144,-38108.293784653404,-27213.83001969219,-36831.15980996607
14264.212759043308,5139.984803197957,-27522.082927475327,-34345.60112304701,-38425.71090766322,-38068.95471441206,-27317.78798315382,-36861.98286556994
14166.289766584609,5178.250989705442,-27450.177365562602,-34274.120244278936,-38390.77513107957,-38003.642917113655,-27252.230316666406,-36803.39894335258
14297.315692581618,5155.273396405387,-27477.558252520354,-34335.87811420895,-38148.79514560642,-38045.70890017854,-27144.874888047565,-36766.33975104568
14415.288199816729,5113.2074133404985,-27547.765081854475,-34406.0178883097,-38145.196514749114,-38112.96529924456,-27192.48410373737,-36816.5417690923
14305.429375818894,5135.536806051351,-27530.889514790717,-34364.66716106739,-38386.97533452217,-38081.941077940595,-27302.298224246293,-36855.36674921116
14171.028336409134,5176.038167004367,-27461.62145872372,-34285.720799651244,-38428.03548908657,-38014.416457941115,-27275.07379949973,-36814.59716732468
14267.364355011507,5166.02458548839,-27461.57675523481,-34317.79555294461,-38183.865032656795,-38028.14042903667,-27152.452129417914,-36770.787748192284
14405.386377023027,5117.342486064731,-27541.975980040548,-34411.225844767796,-38118.24031093602,-38112.31709865536,-27168.36657147009,-36811.35616437867
14328.988114474789,5124.048009401323,-27544.188802741624,-34388.40471367892,-38353.98415970614,-38103.86813925125,-27292.30699447477,-36873.628124431154
14179.678461513337,5167.8574285337245,-27468.81872043833,-34305.27857604964,-38448.84496317446,-38028.386298225676,-27290.02711654033,-36843.96735953896
14234.127311006465,5162.11303020871,-27460.258002311948,-34315.158047098885,-38233.86588500332,-38016.8751498312,-27169.551213926225,-36770.89950691456
14391.70710941638,5112.805081940303,-27536.343340437812,-34403.78271386417,-38109.903110254185,-38106.77386603044,-27157.168347497984,-36795.9334607045
14352.189225219397,5111.463977272985,-27552.570706912364,-34396.250175982736,-38309.63829870681,-38113.07705796684,-27271.139892475596,-36855.36674921116
14183.277092370641,5156.078059205778,-27483.503816545468,-34292.292212521104,-38460.31140808003,-38017.3221847203,-27299.995994567395,-36832.41150765556
14191.122554674454,5154.602844071727,-27445.416443993625,-34280.22227051524,-38268.22051623112,-38001.407742668125,-27179.609498931113,-36766.78678593478
14354.55851013166,5108.625305727161,-27508.671880802143,-34365.11419595649,-38086.29966810938,-38079.147109883685,-27126.9040855055,-36770.27365806981
14333.369056388028,5065.866418584159,-27551.69898887861,-34392.04804802514,-38250.80850730044,-38107.98086023103,-27241.501479327857,-36836.077193746234
14167.720278229748,5097.695302688516,-27475.34542981928,-34289.02885783063,-38432.61759669991,-38010.504902661436,-27286.719058360944,-36818.598129582184
14093.087803493478,5073.130735532133,-27447.942191117072,-34267.4370726868,-38308.38660101731,-37990.94712626304,-27198.56377822921,-36770.854803425646
14207.126403704455,4993.782042715793,-27512.73989829301,-34365.47182386778,-38104.941022985106,-38072.352179569265,-27135.12952746505,-36778.65556224055
14257.596642684537,4968.323405781199,-27546.915715565174,-34406.308460987624,-38198.37131480829,-38106.72916254153,-27211.974824902398,-36824.58839709621
14075.36287014042,4967.116411580612,-27506.50376158998,-34304.65272720489,-38430.40477399883,-38042.222028043514,-27300.73360213442,-36838.42412691404
13961.301918184987,4955.918187608503,-27464.638944225186,-34265.55952615256,-38357.82865975245,-37998.79258856685,-27228.783336732788,-36791.843091469185
14064.54462582405,4877.888247715026,-27523.088755975816,-34364.309533156105,-38133.21597972107,-38072.79921445838,-27146.215992714882,-36791.73133274691
14136.673705181325,4831.642488436996,-27589.249919563525,-34425.86623738602,-38186.882518158265,-38133.5512558879,-27219.216790105915,-36848.1471357521
13989.375709220853,4851.4684857688535,-27554.15768076869,-34357.06756795258,-38420.74882039414,-38074.67676099262,-27314.189352296515,-36853.10922302118
13879.673347434205,4884.258494884789,-27478.944060676586,-34266.83357558651,-38395.916032304296,-37989.382504151166,-27250.241011409882,-36789.943193190484
14001.065671570977,4856.207055593379,-27500.938177220607,-34329.619625761465,-38146.91759907217,-38030.397955226654,-27140.918629278975,-36759.0754340977
14099.011015774133,4785.866115792527,-27592.17799808717,-34443.658225972446,-38142.491953670025,-38120.54254061491,-27194.495760738348,-36820.58743483871
13990.470944699162,4795.209144974845,-27562.02549481696,-34384.04612351014,-38381.6109158529,-38087.68547626561,-27306.992090581905,-36860.418243458065
13853.03006804348,4838.884453640515,-27485.694287502087,-34270.52161342163,-38425.97912859668,-38006.638050870664,-27278.314802445748,-36824.119010462644
13937.94434522919,4824.62404067803,-27497.227787641026,-34316.65561397739,-38191.12934960477,-38028.162780781124,-27158.08476902065,-36783.77411172081
14077.575692841494,4779.5629238561305,-27577.962288613595,-34408.25306275524,-38114.3958108897,-38103.4434561066,-27165.818472602186,-36810.685612045
14010.095776330922,4786.894296037472,-27573.447236233624,-34386.99655377824,-38343.79176423452,-38091.41821758964,-27286.02615428283,-36855.76908061136
13858.59565241285,4834.056476838169,-27494.947909706585,-34293.52155846615,-38445.045166617056,-38010.68371661707,-27284.48388391541,-36819.89453076059
13916.061987407445,4839.465598996353,-27485.001383423973,-34309.19013132931,-38232.033041957984,-38018.90915857663,-27163.337428967647,-36757.24259105237
14074.580559084483,4791.52110713972,-27556.482262192043,-34399.960565562316,-38099.46484559355,-38089.47361582203,-27144.6066671141,-36783.930573932004
14028.49126201764,4771.560999341131,-27586.679468951163,-34410.26471975621,-38302.4410369922,-38109.09844745379,-27268.457683140958,-36849.24237123041
13872.006699086036,4823.931136599915,-27512.337566892813,-34316.342689555015,-38457.11510862292,-38024.16181852363,-27297.179674766026,-36819.514551104854
13888.457583005142,4837.297479784189,-27486.364839835747,-34309.7489249407,-38287.890051351795,-38006.05690551483,-27192.8193799042,-36766.92089640151
14064.745791524148,4807.592011403085,-27547.273343476456,-34413.237501768774,-38108.58435733132,-38093.340467612805,-27141.499774634813,-36781.7848064643
14083.185980699776,4800.931191555404,-27587.059448606906,-34424.569836207615,-38263.19137372868,-38120.54254061491,-27244.228392151403,-36835.943083279504
