Fp1,Fp2,C3,C4,P7,P8,O1,O2
14288.129125610487,6283.6565117426535,-30784.409437705213,-37843.3809093691,-36080.20825150111,-42037.01520407382,-31152.609724117487,-42538.65540488427
14407.778013679745,6208.80051956183,-30899.20799722767,-37972.238716153945,-36006.805122709884,-42159.27924624435,-31190.764151902695,-42620.373382612874
14370.450600439382,6204.732502070964,-30908.171046754247,-37966.449614340025,-36199.85713957038,-42162.67671140155,-31293.559824652653,-42670.083662281475
14241.078703532065,6276.839229683785,-30793.081914553874,-37842.352729124155,-36295.00851571662,-42045.33005301119,-31267.788263295683,-42600.167405625274
14262.782247398169,6290.451442057067,-30766.773911329976,-37835.580150554204,-36112.305356538935,-42029.28150049228,-31153.101462495502,-42539.59417815139
14405.341673534116,6227.263060481913,-30862.372322365325,-37951.071614154775,-35978.53016597393,-42124.47758012743,-31144.786613558128,-42592.63486774384
14401.094842087608,6206.453586394023,-30902.06902051795,-37982.9675534925,-36141.40732781975,-42152.84194384122,-31251.33737937658,-42662.037034277564
14262.804599142624,6269.105526102248,-30806.068278082406,-37862.20107820047,-36285.84430048994,-42044.257169277334,-31257.931143990892,-42611.075056919464
14250.846415859034,6303.996599196983,-30753.407568145703,-37815.48593228888,-36138.166324873724,-42000.35834316711,-31145.3007036806,-42537.18018975022
14369.824751594633,6229.677048883087,-30863.266392143538,-37952.16684963308,-35989.43781726812,-42115.15690268957,-31133.990720986218,-42594.311248577986
14396.780955407734,6185.040615205839,-30928.3993754863,-38022.26192024493,-36119.45791476464,-42181.67569418856,-31241.70377751634,-42685.59577293346
14283.278797063685,6257.5273224744,-30828.28591207098,-37895.281659994325,-36281.0610271765,-42070.542820756775,-31264.189632438378,-42647.642510848345
14238.24003198624,6305.337703864301,-30755.687446080145,-37820.403316069045,-36173.750302046574,-41985.44972961542,-31161.97510504426,-42561.454184228685
14363.70037361388,6259.963662620028,-30832.5774470064,-37918.43806725003,-35986.35327653328,-42071.101614368155,-31117.226912644735,-42581.727216449646
14427.224031355863,6206.27477243838,-30917.40231721429,-38004.4699316585,-36064.27145770448,-42164.53190619134,-31210.61250097901,-42669.50251692564
14309.340931098573,6239.601223421243,-30860.15949966425,-37928.02696562135,-36269.974561926676,-42090.59233553318,-31275.879594788505,-42669.86014483692
14239.938764564844,6304.890668975195,-30759.688408337643,-37827.62292952811,-36209.58014840843,-41983.75099703682,-31182.02461982067,-42575.93811463572
14341.12511171402,6265.395136522668,-30819.211103822126,-37902.12129379765,-36008.39209656621,-42061.400957274556,-31119.082107434526,-42581.503699005094
14431.157938379996,6200.79859504683,-30920.3974509713,-38006.81686482631,-36032.08494568884,-42160.41918521156,-31197.581433961564,-42675.895115839856
14326.417663862429,6212.823833563785,-30894.78235182552,-37954.04439616733,-36254.864782674886,-42119.44843762499,-31291.883443818504,-42699.76677891812
14235.893098818435,6296.464061315544,-30775.692257367642,-37835.17781915401,-36246.79580292652,-42003.21936645739,-31213.160599846913,-42599.67566724726
14321.612038804536,6284.86350594324,-30795.205330277127,-37886.87740407913,-36027.592245053325,-42034.13182903908,-31115.43877308831,-42561.76710865106
14436.343543093628,6214.075531253283,-30904.21478798566,-38008.22502472699,-35997.95383190559,-42149.22096123946,-31171.318134226578,-42646.14494396984
14367.433114937916,6223.8432435802515,-30890.02143025654,-37965.063806183796,-36201.84644482689,-42131.04899299729,-31267.050655728657,-42682.08654905397
14250.712305392302,6300.397968339678,-30772.22773697707,-37838.41882210002,-36254.68596871924,-42009.656668860516,-31218.27914932718,-42598.82630095796
14302.277779850696,6300.53207880641,-30770.439597420645,-37856.970769997926,-36052.98382675455,-42001.051247245225,-31114.857627732472,-42548.64663465579
14412.807156182189,6213.024999263883,-30899.87854956133,-37999.77606532288,-35989.5942794793,-42149.95856880648,-31163.78559634514,-42642.188685201254
14380.017147066254,6209.269906195392,-30911.83673284492,-38001.47479790149,-36180.120549216335,-42156.82055435426,-31267.832966784594,-42703.90185164235
14251.449912959328,6288.618599011731,-30795.920586099695,-37867.34197942519,-36280.8151579875,-42031.807247615725,-31244.877725228995,-42629.895225750835
14271.588834713559,6311.5961923117875,-30762.61648686129,-37843.06798494673,-36099.14017905476,-42001.207709456416,-31130.615607573465,-42553.76518413606
14394.143449562009,6231.509891928422,-30881.930098763718,-37981.04530346934,-35987.806139922875,-42127.182141206526,-31147.334712426033,-42621.17804541327
14388.130830303531,6200.552725857821,-30929.87459062035,-38025.882902846686,-36155.98066520461,-42183.083854089244,-31265.1284057055,-42706.04761911007
14256.233186272764,6267.071517356815,-30824.217894580117,-37893.113540782164,-36298.04835296254,-42057.064718850226,-31272.77270230922,-42655.197400474244
14240.542261665138,6302.610791040754,-30766.572745629877,-37849.706453049956,-36148.62694127881,-42003.2640699463,-31160.723407354762,-42573.70294019019
14373.758658618768,6248.85484562574,-30857.231421140605,-37954.73730024544,-35979.96067761906,-42105.25507989587,-31135.3988808869,-42612.77378949807
14411.466051514872,6210.722769584986,-30922.543218439012,-38013.634146885175,-36097.083818564875,-42162.00615906789,-31237.099318158547,-42688.613258434925
14282.809410430124,6261.260063798436,-30839.14885987626,-37900.19904377449,-36278.3117626085,-42067.59239048867,-31275.723132577317,-42660.74063309916
14231.66861911638,6308.981038210516,-30765.522213640477,-37831.82505748571,-36184.00975275156,-42001.25241294532,-31178.60480291901,-42573.18885006772
14347.7859315617,6256.990880607472,-30843.440394811678,-37935.58185524724,-35996.52332026044,-42088.17834713201,-31132.336691896522,-42581.99543738311
14405.85576365659,6191.634379820154,-30935.79780290101,-38020.406725455134,-36077.03430378846,-42162.07321430126,-31235.199419879846,-42678.130290285386
14303.507125795739,6245.14445604616,-30860.3830171088,-37922.21551206297,-36267.47116654768,-42079.081187138705,-31288.2848129612,-42664.562781401015
14219.486918388238,6302.0296456849155,-30765.47751015157,-37826.997080683366,-36219.16904677976,-41984.1086249481,-31201.917672385895,-42571.04308260001
14319.399216103462,6274.000558137961,-30818.607606721835,-37910.25732877938,-36016.394021081214,-42057.31058803923,-31131.576732585043,-42568.07030058745
14397.362100763572,6197.222315933981,-30930.88041912084,-38025.659385402134,-36045.697158062125,-42167.504688203895,-31214.61346323651,-42660.40535693233
14305.295265352162,6217.5624033883105,-30892.189549468705,-37955.810183979294,-36255.17770709726,-42107.26673689685,-31294.163321752945,-42677.839717607465
14206.56761009307,6295.637046770697,-30779.536757413956,-37845.236104158896,-36254.5071547636,-41995.955049509415,-31220.581379006075,-42589.058588630985
14282.563541241116,6279.566142507332,-30804.95069085964,-37893.71703788245,-36051.10628022031,-42034.51180869482,-31131.822601774053,-42564.0469865855
14417.411615539982,6229.9452698165505,-30894.603537869876,-37989.024876239884,-35998.73614296152,-42128.702059829484,-31167.048951035616,-42628.66587980579
14343.27087918173,6221.384551690167,-30897.6433751158,-37968.08129168526,-36211.5471019205,-42125.81868479475,-31274.20321395436,-42680.54427868656
14214.748348563713,6287.009273410949,-30792.925452342686,-37859.65297933257,-36282.15626265482,-42013.16589274,-31240.51913506021,-42611.47738831966
14261.77641889768,6290.026758912416,-30787.985716818064,-37881.26711622085,-36087.24905100454,-42029.996756314846,-31139.44454663331,-42567.01976859805
14391.260074527274,6221.6751243680865,-30893.195377969194,-37991.64003034116,-35996.72448596054,-42128.47854238493,-31163.673837622864,-42632.197455429734
14350.870472296534,6202.810252047808,-30916.016509058063,-37993.428169897576,-36186.84842429739,-42141.73312684693,-31274.829062799105,-42693.016552092624
14210.121537461466,6264.232845810991,-30821.33451954538,-37887.860880835164,-36313.716925825705,-42043.11723031011,-31276.23722269979,-42643.06040323501
14238.262383730696,6299.570953794832,-30772.22773697707,-37853.01451122934,-36131.17022885921,-42009.27668920478,-31157.46005266429,-42569.277294788044
14387.46027796987,6244.585662434776,-30859.265429886036,-37958.201820636015,-35980.385360763714,-42106.70794328546,-31139.377491399944,-42606.269431861576
14380.933568588922,6198.94340025704,-30917.40231721429,-38002.301812446334,-36144.402461576756,-42158.96632182197,-31254.08664394458,-42683.159432787834
14253.81919787159,6268.434973768589,-30811.835028151876,-37875.74623534039,-36290.42640810328,-42048.50400072384,-31266.447158628365,-42639.327661910975
14238.262383730696,6311.7750062674295,-30749.160736699196,-37824.49368530437,-36149.00692093455,-41993.988095997345,-31154.822546818563,-42554.27927425853
14370.294138228195,6251.872331127207,-30842.09929014436,-37933.83841917973,-35985.302744543886,-42092.93926870099,-31128.62630231694,-42581.90603040529
14398.524391475248,6193.8472025212295,-30925.806573129485,-38018.48447543198,-36115.07697285139,-42176.08775807473,-31250.95739972084,-42680.857203108935
14272.549959725138,6246.552615946844,-30839.64059825428,-37908.715058411966,-36291.834568003964,-42073.627361491606,-31293.939804308393,-42656.35969118592
14208.780432794147,6287.858639700251,-30766.371579929782,-37838.26235988884,-36205.93681406222,-42004.001677513326,-31202.565872975098,-42572.630056456335
14326.21649816233,6242.462246711522,-30836.600761008354,-37931.96087264548,-36013.667108257665,-42092.492233811885,-31154.286104951636,-42585.839937429424
14399.641978698013,6191.008530975406,-30923.21377077267,-38017.94803356505,-36076.028475287974,-42179.86520288768,-31245.771795007207,-42672.85527859393
14283.792887186157,6223.418560435601,-30870.351895135867,-37933.79371569082,-36287.453626090726,-42106.14914967408,-31321.00776684377,-42682.175956031795
14200.912618745879,6289.982055423505,-30769.500824153525,-37833.21086564194,-36248.919218649775,-42010.86366306111,-31241.167335649414,-42600.055646903
14303.417718817916,6261.90826438764,-30810.04688859545,-37900.48961645241,-36032.71079453359,-42063.18909683098,-31158.532936398144,-42580.453167015694
14399.105536831086,6190.98617923095,-30919.481029448634,-38021.90429233364,-36050.50278312001,-42171.282133016844,-31233.03130066768,-42665.81447909051
14316.761710257735,6219.395246433645,-30883.137092964305,-37964.840288739244,-36256.51881176458,-42128.67970808503,-31314.592816185097,-42686.33338050049
14206.008816481688,6289.087985645293,-30773.390027688747,-37836.58597905469,-36265.72773048016,-42021.190168999456,-31247.939914219372,-42603.16253938228
14271.54413122465,6271.787735436886,-30800.5697489464,-37891.77243611484,-36066.61839087229,-42059.05402410675,-31160.008151532194,-42578.441510014716
14389.069603570653,6199.256324679413,-30911.277939233536,-38007.91210030462,-36025.42412584116,-42159.16748752207,-31210.590149234555,-42650.235313205165
14335.872451767023,6209.18049921757,-30898.62685187183,-37980.33004764677,-36221.158352036284,-42138.33566168972,-31305.897987591983,-42687.24980202315
14215.463604386283,6284.416471054134,-30780.967269059096,-37851.60635132866,-36278.982314942165,-42021.547796910745,-31261.66388531493,-42606.24708011712
14259.697706663335,6290.362035079245,-30773.591193388846,-37856.970769997926,-36090.73592313957,-42021.324279466186,-31160.388131187934,-42556.15682079278
14396.602141452091,6225.877252325685,-30882.15361620827,-37984.39806513763,-35999.40669529518,-42143.67772861454,-31185.98087858926,-42628.37530712787
14375.122115030541,6215.0366562648605,-30905.26531997506,-37994.65751584262,-36182.31102017296,-42157.938141577026,-31293.96215605285,-42692.100130569954
14238.53060466416,6283.321235575823,-30799.42980997918,-37862.0893194782,-36301.71403905321,-42046.40293674504,-31285.37908618201,-42629.55994958401
14248.700648391325,6308.645762043687,-30761.6106583608,-37834.50726682034,-36132.91366492673,-42012.62945087307,-31174.89441333943,-42555.68743415921
14378.631338910025,6233.342734973757,-30872.87764225932,-37958.5594485473,-36002.67004998565,-42116.676821312525,-31176.2578697512,-42609.555138296506
14388.667272170458,6200.552725857821,-30920.151581782295,-38003.642917113655,-36153.36551110334,-42161.357958478686,-31285.177920481914,-42685.84164212247
14249.997049569733,6258.086116085782,-30828.15180160425,-37897.583889673224,-36310.67708857979,-42067.190059088476,-31305.04862130268,-42648.067193992996
14224.158432979399,6299.10156716127,-30765.43280666266,-37838.19530465547,-36183.49566262909,-42000.38069491157,-31200.55421597412,-42566.50567847558
14364.75090560328,6253.861636383729,-30842.52397328901,-37934.911302913584,-36001.53011101844,-42088.80419597676,-31159.806985832096,-42590.734969465135
14410.795499181211,6206.833566049763,-30919.145753281806,-38013.74590560745,-36111.0760105939,-42168.063481815276,-31262.80382428215,-42685.036979322074
14281.714174951814,6253.973395106005,-30843.708615745145,-37910.592604946214,-36299.680030307776,-42079.46116679444,-31309.3401562381,-42661.09826101044
14229.299334204119,6317.452349359078,-30755.866260035786,-37827.44411557247,-36214.0504972995,-41994.72570356437,-31208.55614048912,-42563.35408250739
14351.31750718564,6280.504915774455,-30816.95357763214,-37905.921090355056,-36013.041259412916,-42066.38539628809,-31145.63597984743,-42569.99255061061
14423.714807476379,6221.5186621569,-30908.036936287517,-38002.34651593525,-36069.16648974019,-42156.77585086535,-31230.505553544233,-42658.617217375904
14313.297189867162,6258.5331509748885,-30856.5832205514,-37920.89675914011,-36275.696608507234,-42098.795425748285,-31301.315879978643,-42659.13130749838
14225.633648113448,6327.130654708226,-30753.452271634615,-37815.95531892244,-36241.96782612417,-41998.525500121774,-31216.93804465986,-42565.45514648619
14314.526535812205,6290.4067385681565,-30801.6202809358,-37891.34775297019,-36042.32204464937,-42061.35625378564,-31144.786613558128,-42558.25788477158
14416.495194017316,6216.109539998715,-30910.093296777406,-38000.58072812328,-36044.69132956163,-42159.77098462236,-31217.921521415894,-42647.88838003736
14334.26312616624,6231.286374483869,-30881.237194685604,-37952.882105455654,-36253.948361152216,-42114.2404811669,-31306.568539925644,-42673.54818267205
14236.138968007443,6311.81970975634,-30763.84583280633,-37827.51117080583,-36266.688855491746,-41997.296154176736,-31237.121669903,-42579.60380072639
14307.262218864229,6313.853718501773,-30767.7126845971,-37853.50624960736,-36052.38032965426,-42014.194072984945,-31134.080127964036,-42536.80021009448
14411.644865470513,6237.701325142542,-30882.01950574154,-37980.73237904697,-36007.56508202137,-42133.61944360965,-31184.259794266203,-42618.071152933975
14345.528405371715,6228.604165149232,-30894.849407058886,-37974.54094583284,-36225.136962549324,-42144.52709490384,-31302.165246267945,-42680.18665077527
14224.091377746032,6302.901363718673,-30778.82150159139,-37843.269150646825,-36294.56148082751,-42022.03953528876,-31266.08953071708,-42605.01773417208
14268.25842478972,6307.617581798742,-30763.823481061874,-37840.8328105012,-36100.12365581079,-42006.12509323658,-31157.102424753004,-42546.791439866
14406.235743312329,6236.449627453045,-30871.11185444735,-37969.26593414139,-36002.22301509655,-42123.471751626945,-31175.11793078398,-42611.47738831966
14392.310606516672,6223.150339502137,-30894.53648263651,-37972.79750976533,-36175.985476492104,-42140.61553962416,-31279.880557046006,-42667.557915158024
14263.899834620934,6292.776023480418,-30785.6164319058,-37854.735595552396,-36291.72280928169,-42025.05702079023,-31272.817405798127,-42607.81170222899
14275.388631270962,6326.996544241494,-30739.37067262777,-37816.983499167385,-36123.88356016679,-41988.69073256144,-31158.242363720223,-42532.6874891147
14403.553533977692,6250.710040415531,-30850.838822226386,-37939.58281750474,-35988.18611957862,-42107.53495783031,-31157.147128241915,-42590.82437644296
14414.841164927622,6211.214507963003,-30909.91448282176,-37988.399027395135,-36140.848534208366,-42147.05284202729,-31269.911679018936,-42673.21290650522
14277.132067338476,6267.093869101271,-30820.418098022714,-37883.77051159984,-36303.3680681429,-42060.41748051852,-31291.39170544049,-42634.63379557536
14240.117578520487,6300.174450895125,-30759.80016705992,-37834.529618564804,-36182.579241106425,-42006.572128125685,-31190.205358291314,-42556.80502138198
14371.255263239773,6241.031735066383,-30848.156612891747,-37942.13091637265,-36006.42514305415,-42086.81489072024,-31156.20835497479,-42587.53867000803
14421.457281286393,6195.858859522207,-30925.56070394048,-38012.80713234033,-36108.751429170545,-42165.04599631381,-31257.171184679413,-42678.64438040786
14301.964855428321,6248.050182825349,-30851.129394904307,-37917.40988700508,-36296.4166756173,-42082.791576718286,-31301.29352823419,-42655.0185865186
14237.0106860412,6301.314389862346,-30768.47264390858,-37837.86002848864,-36217.09033454541,-41995.21744194239,-31202.99055611975,-42553.675777158234
14336.297134911674,6245.882063613184,-30848.782461736497,-37931.44678252301,-36033.448402100614,-42078.54474527178,-31156.02954101915,-42572.4512425007
14417.344560306617,6191.567324586788,-30939.105861080392,-38020.74200162196,-36084.25391724753,-42177.92060112007,-31243.067233928115,-42664.62983663438
14320.494451581772,6233.074514040293,-30875.15752019376,-37939.31459657128,-36278.490576564145,-42104.7856932623,-31303.10401953507,-42658.14783074234
14222.750273078713,6292.083119402304,-30781.123731270283,-37842.26332214634,-36259.469242032676,-42009.857834560615,-31233.47833555679,-42574.37349252385
14316.985227702287,6273.933502904595,-30816.104211342838,-37891.41480820356,-36054.19082095514,-42051.02974784729,-31152.20739271729,-42555.97800683713
14422.418406297971,6211.505080640922,-30916.083564291428,-38007.59917588224,-36046.43476562915,-42156.44057469852,-31214.389945791954,-42632.53273159656
14327.512899340738,6212.242688207947,-30902.73957285161,-37970.160003919606,-36264.297218835025,-42132.63596685362,-31318.81729588715,-42672.76587161611
14216.782357309146,6285.221133854525,-30786.912833084207,-37837.50240057736,-36293.48859709366,-42019.96082305442,-31260.278077158702,-42587.583373496935
14278.651985961436,6276.191029094581,-30801.57557744689,-37880.954191798475,-36089.23835626106,-42030.354384226135,-31162.93623005584,-42546.92555033274
14422.731330720346,6228.671220382598,-30888.7920843115,-37975.256201655415,-36013.93532919113,-42121.95183300398,-31185.98087858926,-42604.660106260795
14372.953995818378,6228.201833749036,-30893.709468091663,-37961.46517532649,-36210.45186644219,-42126.466885383954,-31287.547205394174,-42655.197400474244
14230.886308060446,6288.640950756187,-30795.04886806594,-37852.36631064014,-36303.34571639845,-42022.12894226658,-31268.01178074024,-42593.84186194442
14255.875558361478,6292.86543045824,-30782.196615004137,-37843.93970298048,-36121.35781304334,-42017.85975907562,-31165.953715557305,-42537.06843102795
14382.274673256241,6215.438987665056,-30897.911596049264,-37981.98407673646,-36019.23269262704,-42140.3473186907,-31187.500797212222,-42605.39771382782
14368.595405649592,6199.8374700352515,-30926.343014996415,-37998.881995544674,-36193.553947633976,-42163.61548466868,-31296.62201364303,-42671.64828439335
14248.790055369147,6279.655549485154,-30808.303452527936,-37856.903714764565,-36315.125085726395,-42032.88013134958,-31283.85916755905,-42604.57069928297
14244.453816944817,6303.951895708072,-30764.069350250884,-37823.91253994853,-36159.46753733963,-41997.564375110196,-31176.16846277338,-42531.256977469566
14373.311623729662,6236.784903619874,-30854.504508317055,-37940.67805298306,-36005.5981285093,-42099.33186761521,-31160.857517821496,-42572.29478028951
14398.502039730793,6204.5313363708665,-30901.97961354013,-37986.7673500499,-36135.99820566156,-42146.96343504947,-31263.697894060362,-42644.60267360243
14254.0650670606,6253.5487119613545,-30812.52793222999,-37869.24187770389,-36300.55174834153,-42056.08124209419,-31290.519987406733,-42609.62219352987
14192.418955852861,6262.131781832192,-30757.319123425383,-37817.22936835639,-36192.81634006695,-41998.77136931079,-31196.150922316425,-42533.38039319282
14307.485736308783,6197.378778145168,-30842.43456631119,-37916.806389904785,-36010.671974500656,-42075.97429465941,-31157.191831730826,-42557.52027720455
14338.398198890472,6124.668553432054,-30928.44407897521,-38009.74494334996,-36108.30439428144,-42170.9021533611,-31261.641533570473,-42654.34803418494
14189.04384244011,6154.2846148353365,-30860.137147919795,-37925.14359058662,-36300.66350706381,-42098.2366321369,-31316.2915487637,-42646.43551664776
14097.379338428897,6196.5517636003215,-30778.150949257728,-37851.47224086193,-36234.07766033145,-42008.673192104485,-31228.538600032163,-42565.47749823064
14186.786316250125,6133.87747214764,-30851.755243749052,-37925.09888709771,-36042.23263767155,-42081.718692984425,-31174.000343561216,-42573.390015767814
14246.688991390347,6049.5666920622225,-30944.783204172043,-38023.37950746769,-36081.16937651269,-42173.316141762276,-31249.638646797976,-42646.83784804796
14108.912838567834,6047.845607739164,-30898.64920361629,-37954.24556186743,-36285.553727812025,-42115.76039978986,-31321.588912199608,-42656.76202258611
13988.034604553533,6087.609361125155,-30811.499751985044,-37860.77056655533,-36280.435178331754,-42022.441866688954,-31257.57351607961,-42575.13345183533
14069.886692748869,6059.870846256119,-30837.38307206429,-37913.319517769756,-36065.43374841616,-42057.55645722824,-31166.087826024035,-42545.0927072874
14163.406391549874,5977.616426660589,-30938.7035296802,-38021.457257444534,-36046.8594487738,-42170.656284172095,-31224.716451730306,-42630.49872285112
14082.671890577305,5987.026511076273,-30915.860046846876,-37979.65949531311,-36255.98236989765,-42137.1957227225,-31314.72692665183,-42661.63470287737
13958.351487916887,6051.354831618647,-30805.777705404485,-37855.07087171923,-36297.04252446205,-42015.177549740976,-31260.79216728117,-42574.28408554603
14009.358168763896,6036.915604700519,-30821.222760823104,-37887.25738373487,-36102.06825757841,-42038.870398863604,-31169.529994670153,-42537.962500806156
14132.002190590167,5964.540656154234,-30930.88041912084,-38005.721629348,-36037.27055040247,-42139.833228568226,-31207.527960244177,-42608.2587371181
14081.442544632262,5958.550388640212,-30937.518887224065,-37993.27170768639,-36232.26716903057,-42146.13642050463,-31311.485923705808,-42660.11478425441
13955.602223348884,6033.808712221231,-30823.748507946555,-37867.56549686974,-36317.94140552776,-42034.15418078353,-31286.742542593784,-42591.494928776614
13990.24742725461,6047.376221105603,-30802.514350714013,-37863.43042414551,-36133.40540330474,-42011.824788072685,-31177.755436629708,-42525.55728263346
14130.638734178394,5980.56685692869,-30913.379003212336,-38003.19588222455,-36022.406640339694,-42134.71467908796,-31193.17814030387,-42591.092597376424
14136.763112159148,5978.3093307387035,-30936.758927912586,-38000.625431612185,-36184.07680798493,-42154.719490375464,-31295.370315953533,-42653.029281262076
14006.452441984708,6051.645404296566,-30831.81748769492,-37878.093168508196,-36316.77911481608,-42044.324224510696,-31295.929109564917,-42597.39578931282
14017.024817112067,6097.555887407767,-30781.503710926023,-37833.81436274223,-36160.696883284676,-42009.47785490488,-31185.086808811047,-42518.62824185232
14159.89716767039,6050.773686262809,-30881.259546430058,-37957.66537876909,-36010.515512289465,-42118.4426091245,-31172.54748017162,-42565.164573808266
14181.80187723659,6012.194575332949,-30947.26424780658,-38022.172513267105,-36150.19156339068,-42162.900228846105,-31282.026324513714,-42650.95056902774
14058.956689710223,6073.7512795628645,-30861.701770031665,-37917.34283177171,-36326.457420165236,-42075.39314930358,-31322.035947088716,-42630.56577808449
14030.949953907724,6131.5081872353785,-30781.682524881668,-37830.7298220074,-36207.948471063195,-42001.87826179007,-31212.422992279888,-42535.97319554963
14166.17800786233,6085.620055868632,-30865.68038054471,-37935.22422733596,-36027.21226539758,-42093.81098673475,-31171.049913293115,-42554.458088214174
14234.172014495376,6037.899081456552,-30948.046558862516,-38020.18320801058,-36118.98852813107,-42175.21604004098,-31272.504481375752,-42648.894208537844
14120.423986962318,6093.264352472348,-30870.374246880325,-37921.276738795845,-36306.69847806674,-42090.34646634418,-31322.43827848891,-42634.74555429764
14048.741942494147,6157.2797485923475,-30782.218966748595,-37833.76965925332,-36243.957131380696,-42003.2640699463,-31233.724204745795,-42542.94693981969
14167.742629974204,6126.076713332738,-30842.09929014436,-37911.151398557595,-36044.13253595025,-42073.15797485805,-31171.139320270937,-42546.54557067699
14260.994107841743,6067.068107970728,-30945.587866972433,-38020.65259464414,-36088.254879505024,-42178.63585694264,-31259.85339401405,-42642.50160962363
14173.442324810307,6108.35177997968,-30890.043782000994,-37950.04343390983,-36290.649925547834,-42122.421219637545,-31335.178772828436,-42655.24210396315
14084.370623155908,6191.74613854243,-30782.308373726413,-37829.25460687335,-36278.37881784187,-42015.69163986345,-31261.529774848197,-42568.494983732104
14180.349013846997,6186.1582024286035,-30813.131429330282,-37884.68693312251,-36069.121786251286,-42064.731367198394,-31175.564965673086,-42545.584445665416
14293.560599513126,6114.096178304694,-30930.947474354205,-38009.722591605496,-36063.7126640931,-42183.64264770063,-31248.498707830753,-42634.74555429764
14228.472319659271,6126.121416821649,-30909.48979967711,-37961.778099748866,-36270.98039042716,-42145.89055131561,-31341.169040342458,-42669.10018552544
14124.514356197638,6211.862708552207,-30785.862301094807,-37834.48491507589,-36300.730562297176,-42011.10953225011,-31271.811577297638,-42572.27242854505
14180.483124313729,6208.375836417179,-30798.111057056318,-37863.45277588997,-36108.93024312618,-42038.110439552125,-31176.36962847348,-42531.54755014748
14321.209707404341,6146.796780442808,-30898.62685187183,-37966.27080038438,-36032.755498022496,-42142.895417558604,-31208.712602700307,-42601.91084169279
14284.754012197734,6138.9066146500845,-30912.864913089863,-37974.09391094374,-36227.08156431694,-42154.54067641982,-31317.05150807518,-42660.49476391015
14158.444304280794,6206.8782695386735,-30800.99443209105,-37847.35951988215,-36318.477847394686,-42035.115305795116,-31291.347001951577,-42588.499795019605
14180.259606869175,6216.936554543562,-30783.649478393734,-37835.73661276539,-36143.1284121428,-42015.2669567188,-31185.690305911343,-42522.65155585427
14317.16404165793,6149.948376411006,-30890.267299445546,-37962.91803871609,-36025.73705026353,-42132.412449409065,-31197.380268261466,-42584.14120485082
14318.080463180599,6127.171948811048,-30927.3488434969,-37990.72360881849,-36189.68709584321,-42174.18785979603,-31308.11081029306,-42657.1196504974
14181.444249325306,6185.420594861579,-30831.05752838344,-37876.86382256315,-36337.990920304175,-42066.921838155016,-31321.87948487753,-42613.64550753182
14184.886417971424,6235.309688485824,-30769.344361942338,-37827.64528127257,-36184.83676729641,-42005.34278218065,-31205.024564865183,-42533.89448331529
14327.714065040836,6184.258304149903,-30859.935982219697,-37935.55950350279,-36019.43385832714,-42106.01503920735,-31177.710733140797,-42566.88565813132
14351.965707774843,6138.21371057197,-30933.60733194439,-37995.126902476186,-36154.05841518145,-42172.757348150895,-31295.124446764523,-42653.096336495444
14228.181746981354,6200.955057258017,-30845.608514023843,-37884.68693312251,-36328.64789112185,-42080.55640227275,-31330.350796026087,-42622.1615221693
14181.645415025403,6247.111409558226,-30772.85358582182,-37818.86104570163,-36220.957186336185,-42006.303907192225,-31223.97884416328,-42534.252111226575
14306.68107350839,6195.836507777752,-30850.52589780401,-37919.84622715071,-36036.93527423564,-42078.656503994054,-31174.045047050127,-42554.1451637918
14377.893731343,6149.702507221998,-30931.014529587574,-37997.65264959963,-36113.24412980606,-42172.51147896188,-31267.967077251327,-42644.04387999104
14261.39643924194,6190.874420508674,-30866.57445032292,-37907.97745084494,-36313.11342872542,-42098.52720481482,-31329.926112881436,-42638.65710957731
14189.960263962777,6258.600206208254,-30771.19955673213,-37814.10012413265,-36256.49646002012,-41997.92200302148,-31237.27813211419,-42540.22002699614
14297.44980304835,6230.638173894665,-30821.647443967755,-37889.51490992486,-36049.69812031962,-42065.580733487695,-31161.818642833074,-42533.60391063737
14395.171629806951,6178.60331280271,-30916.06121254697,-37980.73237904697,-36076.09553052134,-42161.17914452305,-31239.021568181703,-42621.423914602274
14303.037739162177,6208.018208505894,-30873.34702889288,-37914.66062243708,-36285.50902432311,-42098.996591448384,-31321.25363603278,-42637.83009503247
14202.588999580026,6276.235732583491,-30766.215117718595,-37805.82997868419,-36279.42934983127,-41995.57506985367,-31251.18091716539,-42549.42894571173
14275.813314415613,6248.452514225544,-30801.508522213524,-37873.26519170585,-36077.95072531113,-42047.38641350107,-31168.032427791648,-42530.69818385818
14388.913141359466,6177.172801157571,-30907.142866509304,-37981.13471044716,-36054.23552444405,-42159.703929389,-31224.00119590774,-42614.360763354394
14332.542041843182,6193.646036821132,-30884.25468018707,-37940.096907627216,-36252.339035551435,-42134.73703083242,-31314.414002229456,-42643.75330731313
14217.072929987065,6270.290168558379,-30767.7126845971,-37805.11472286162,-36299.456512863224,-42011.71302935041,-31262.513251604232,-42557.36381499336
14268.77251491219,6271.027776125405,-30765.924545040674,-37819.01750791282,-36099.743676155056,-42007.95793628191,-31154.26375320718,-42507.541776602484
14390.880094871532,6191.612028075699,-30887.629793599823,-37957.710082257996,-36030.6544340437,-42141.66607161356,-31192.194663547834,-42587.605725241396
14362.806303835667,6187.476955351467,-30895.631718114822,-37945.59543676322,-36215.3468984779,-42125.215187694455,-31291.2352432293,-42628.93410073926
14236.250726729719,6265.104563844749,-30775.871071323287,-37808.75805720783,-36309.76066705712,-42007.60030837063,-31266.08953071708,-42557.07324231544
14253.618032171493,6284.550581520865,-30747.596114587323,-37803.48304551638,-36136.04290915047,-41999.240755944345,-31158.085901509035,-42500.478625354604
14387.594388436602,6218.098845255237,-30855.130357161805,-37933.54784650181,-36017.08692515933,-42121.1918736925,-31169.59704990352,-42564.06933832995
14389.337824504117,6192.282580409358,-30895.072924503438,-37956.77130899087,-36179.38294164931,-42144.214170481464,-31278.450045400867,-42635.281996164565
14252.791017626647,6256.387383507179,-30799.452161723635,-37838.91056047804,-36327.01621377662,-42043.899541366045,-31292.86692057454,-42593.23836484413
14231.24393597173,6289.199744367569,-30751.060634977894,-37798.744475691856,-36188.41304640926,-41995.86564253159,-31190.02654433567,-42515.096666228375
14367.902501571478,6231.644002395154,-30838.6794732427,-37899.17086352955,-36021.221997883564,-42090.92761170001,-31159.87404106546,-42546.1432392768
14397.920894374955,6189.265094907892,-30912.26141598957,-37964.773233505875,-36145.90002845526,-42157.33464447673,-31268.99525749627,-42633.873836263876
14264.72684916578,6242.194025778059,-30829.78347894949,-37862.89398227858,-36329.83253357799,-42064.887829409585,-31314.1904847849,-42612.79614124252
14219.442214899329,6299.235677628002,-30741.98582672904,-37778.113815559605,-36222.41004972578,-41985.539136593245,-31206.052745110126,-42515.90132902877
14330.776254031212,6242.082267055782,-30825.760164947533,-37891.861843092665,-36039.23750391454,-42076.42132954852,-31163.96441030078,-42538.07425952843
14397.85383914159,6187.991045473939,-30910.696793877698,-37967.25427714041,-36112.84179840586,-42167.951723093,-31258.735806791286,-42631.23633041815
14288.620863988503,6230.7722843613965,-30843.10511864485,-37879.07664526423,-36305.75970479962,-42088.04423666528,-31309.630728916018,-42617.28884187804
14204.600656581004,6287.948046678072,-30749.071329721373,-37787.07686508619,-36258.08343387645,-41984.33214239265,-31219.70966097232,-42524.86437855534
14311.039663677177,6259.695441686564,-30796.881711111273,-37847.7842030268,-36047.12766970726,-42040.189151786464,-31140.204505944792,-42514.29200342799
14403.777051422245,6194.4954031104335,-30902.046668773495,-37961.062843926295,-36072.02751303047,-42144.90707455958,-31220.670785983897,-42605.353010338906
14314.481832323294,6218.836452822263,-30865.278049144516,-37911.911357869074,-36282.7150562662,-42104.740989773396,-31302.47817069032,-42620.68630703525
14208.311046160585,6283.231828598003,-30760.604829860313,-37794.16236807852,-36291.09696043694,-41987.21551742739,-31240.04974842665,-42531.92752980322
14284.865770920012,6265.819819667318,-30788.90213834073,-37837.92708372201,-36087.38316147127,-42028.00745105832,-31158.085901509035,-42511.20746269315
14393.271731528252,6193.578981587766,-30896.011697770562,-37950.66928275458,-36051.59801859832,-42136.48046689993,-31208.93612014486,-42585.39290254032
14322.12612892701,6193.601333332221,-30895.564662881454,-37928.02696562135,-36266.42063455828,-42125.03637373881,-31316.604473186075,-42632.599786829924
14217.229392198253,6285.154078621159,-30772.272440465982,-37790.630792454576,-36316.153265971334,-42000.80537805622,-31265.731902805797,-42550.054794556476
14264.704497421324,6283.589456509288,-30770.12667299827,-37806.90286241804,-36120.95548164314,-42014.484645662866,-31161.840994577527,-42498.91400324273
14387.28146401423,6203.905487526118,-30886.06517148795,-37938.66639598208,-36041.38327138225,-42134.28999594331,-31197.60378570602,-42574.84287915741
14359.162969489453,6194.316589154791,-30899.40916292777,-37943.85200069571,-36221.49362820311,-42126.51158887286,-31299.86301658905,-42629.78346702856
14234.686104617847,6276.123973861215,-30779.00031554703,-37805.651164728544,-36321.24946370715,-42011.02012527229,-31273.398551153965,-42559.978969094635
14255.361468239007,6304.600096297276,-30737.873105749266,-37779.030237082276,-36138.54630452947,-41979.19124116794,-31153.3026281956,-42482.41841583472
14384.129868046031,6228.917089571606,-30848.04485416947,-37907.75393340039,-36011.09665764531,-42099.95771645996,-31158.801157331607,-42543.12575377533
14375.211522008363,6187.298141395824,-30909.847427588396,-37962.47100382698,-36179.44999688268,-42148.72922286144,-31282.62982161401,-42634.18676068625
14238.575308153071,6248.6760316700975,-30813.019670608006,-37847.85125826016,-36333.81114409103,-42048.168724557014,-31299.281871233212,-42592.12077762136
14215.329493919551,6281.644854741676,-30754.033416990453,-37796.10696984613,-36195.05151451248,-41998.92783152197,-31190.607689691507,-42516.46012264015
14348.344725173083,6225.251403480936,-30841.652255255256,-37898.52266294035,-36024.46300082958,-42094.21331813494,-31161.192793988324,-42550.412422467765
14392.757641405778,6188.862763507696,-30903.991270541108,-37959.23000088096,-36135.10413588335,-42158.988673566426,-31258.33347539109,-42620.239272146144
14272.795828914146,6249.100714814748,-30812.14795257425,-37850.600522828165,-36309.112466467916,-42048.81692514622,-31290.072952517625,-42580.22964957114
14226.974752780767,6307.975209710027,-30726.093736421317,-37760.90297232902,-36210.92125307575,-41962.2039153819,-31185.73500940025,-42486.7770060035
14341.415684391939,6258.957834119539,-30798.446333223146,-37846.286636148296,-36019.88089321624,-42052.70612868144,-31132.98489248573,-42502.42322712222
14412.002493381799,6203.36904565919,-30882.15361620827,-37931.89381741212,-36084.969173070094,-42139.05091751229,-31223.308291829624,-42593.52893752205
14297.11452688152,6234.594432663254,-30832.01865339502,-37868.79484281479,-36297.2660419066,-42071.54864925726,-31296.644365387485,-42601.17323412577
14220.358636421995,6303.035474185404,-30727.45719283309,-37757.080824027165,-36250.41678552828,-41973.223325398365,-31205.583358476564,-42508.391142891785
14314.571239301114,6264.612825466732,-30784.208272005115,-37835.781316254295,-36045.965378995585,-42043.36309949912,-31136.40470938739,-42504.032552723
14409.409691024983,6193.981312987961,-30894.93881403671,-37961.08519567075,-36068.31712345089,-42150.182086251036,-31220.849599939538,-42600.97206842567
14334.911326755444,6227.084246526271,-30847.217839624627,-37893.51587218235,-36266.57709676946,-42099.26481238184,-31293.91745256394,-42611.924423208766
14226.684180102848,6290.8761252017175,-30738.878934249755,-37777.08563531466,-36281.93274521026,-41983.661590059,-31228.784469221173,-42528.239491968096
14301.584875772582,6279.320273318323,-30755.12865246876,-37823.80078122625,-36075.13440550976,-42016.719820108396,-31130.12386919545,-42495.673000296716
14423.021903398265,6208.845223050741,-30862.01469445404,-37944.634311751644,-36025.29001537443,-42125.23753943891,-31171.295782482124,-42570.90897213328
14366.673155626435,6214.231993464469,-30853.409272838748,-37917.47694223845,-36222.72297414816,-42111.580623576716,-31267.743559806775,-42615.05366743251
14236.742465107736,6279.9014186741615,-30743.259876162992,-37797.17985357998,-36288.973544713685,-41987.416683127485,-31226.862219198018,-42540.75646886307
14282.652948218936,6290.093814145782,-30730.98876845703,-37803.19247283846,-36093.6192981743,-41988.57897383916,-31117.808058000574,-42489.79449150497
14410.527278247748,6216.243650465447,-30847.351950091357,-37940.27572158286,-36004.994631409005,-42111.73708578791,-31145.345407169512,-42565.81277439747
14385.560379691171,6203.637266592654,-30870.977743980617,-37949.0599571538,-36186.84842429739,-42119.11316145815,-31253.393739866468,-42630.69988855122
14255.182654283364,6274.537000004888,-30762.102396738817,-37817.83286545669,-36295.23203316117,-42000.984192011856,-31237.255780369735,-42563.24232378511
14254.221529271786,6282.315407075335,-30736.867277248777,-37812.46844678741,-36137.22755160661,-41983.19220342543,-31136.002377987195,-42503.60786957835
14388.823734381645,6214.366103931201,-30838.791231964977,-37923.57896847474,-35996.63507898272,-42078.67885573851,-31126.413479615865,-42558.727271405136
14409.029711369243,6191.522621097877,-30879.404351640267,-37944.74607047392,-36133.695975982664,-42104.20454790647,-31222.503629029234,-42628.084734449956
14288.173829099398,6264.5234184889105,-30776.13929225675,-37825.96890043842,-36282.5138905661,-41991.43999712944,-31231.287864600166,-42578.575620481446
14252.768665882191,6295.994674681982,-30724.260893375984,-37789.356743020624,-36155.10894717085,-41937.706403458884,-31127.553418583087,-42495.65064855226
14372.730478373824,6230.28054598338,-30822.027423623495,-37901.94247984201,-35992.92468940314,-42041.48555296488,-31104.39701132739,-42538.18601825071
14425.435891799438,6197.4905368674445,-30882.555947608467,-37960.90638171511,-36086.48909169306,-42098.25898388136,-31196.799122905628,-42616.461827333194
14294.275855335696,6241.814046122318,-30811.253882796038,-37877.46731966345,-36275.070759662485,-42025.95109056844,-31248.923390975404,-42604.52599579406
14232.540337150138,6292.776023480418,-30729.446498089612,-37795.14584483455,-36192.65987785577,-41938.622824981554,-31153.615552617975,-42519.432904652705
14350.378733918516,6248.6760316700975,-30798.37927798978,-37881.714151109954,-35997.05976212737,-42004.046381002234,-31099.34551708049,-42528.77593383502
14427.42519705596,6189.645074563632,-30890.960203523664,-37975.36796037769,-36057.632989601254,-42093.85569022366,-31193.871044381984,-42622.563853569496
14316.985227702287,6221.988048790461,-30839.39472906527,-37905.16113104357,-36266.84531770293,-42037.64105291856,-31265.933068505892,-42634.63379557536
14232.227412727763,6291.770194979929,-30731.12287892376,-37793.60357446713,-36226.969805594665,-41930.97852837784,-31177.55427092961,-42529.80411407997
14334.374884888517,6271.921845903617,-30768.249126464027,-37856.2331624309,-36009.01794541096,-41973.60330505411,-31094.04815364458,-42504.99367773458
14435.941211693433,6205.157185215615,-30874.755188793566,-37970.51763183089,-36016.7516489925,-42088.155995387555,-31169.418235947876,-42602.53669053754
14360.727591601324,6231.979278561983,-30836.39959530826,-37916.33700327123,-36218.78906712402,-42041.75377389834,-31251.247972398756,-42622.20622565821
14242.710380877303,6295.659398515153,-30730.98876845703,-37794.43058901198,-36244.22535231416,-41946.11065937408,-31196.665012438898,-42542.52225667504
14302.478945550794,6277.755651206452,-30755.016893746484,-37846.95718848195,-36046.680634818156,-41985.87441276007,-31110.074354419037,-42517.42124765173
14428.252211600806,6211.7509498299305,-30862.43937759869,-37967.8130707518,-35996.76918944946,-42088.580678532206,-31158.44352942032,-42595.74176022312
14379.078373799131,6218.456473166522,-30857.812566496443,-37940.94627391652,-36193.911575545266,-42076.197812103965,-31259.875745758505,-42639.35001365543
14251.025229814677,6291.412567068644,-30744.623332574767,-37812.89312993206,-36268.02996015906,-41953.17381062196,-31224.738803474764,-42562.28119877353
14284.955177897833,6298.051035171871,-30735.45911734809,-37832.20503714145,-36082.35401896883,-41958.35941533559,-31124.245360403704,-42511.967422004636
14426.844051700122,6237.410752464623,-30834.879676685297,-37929.59158773322,-35978.03842759591,-42063.814945675724,-31138.595180344008,-42565.9468848642
14403.531182233237,6218.769397588897,-30864.67455204422,-37942.22032335047,-36161.00980770705,-42083.842108707686,-31252.298504388156,-42632.331565896464
14267.610224200514,6287.791584466885,-30760.627181604767,-37822.571435281214,-36285.956059212214,-41974.85500274361,-31251.404434609944,-42576.832184413935
14272.102924836032,6318.793454026396,-30714.06849790436,-37779.499623715834,-36119.94965314265,-41928.65394695449,-31135.68945356482,-42497.70700904215
14400.334882776127,6247.066706069316,-30821.021595123006,-37913.02894509184,-35981.14532007519,-42047.14054431207,-31133.476630863745,-42551.597064923895
14416.8528219286,6209.89575504014,-30874.73283704911,-37967.94718121853,-36130.700842225655,-42101.94702171648,-31244.36363510652,-42633.69502230824
14282.183561585374,6267.652662712653,-30784.90117608323,-37846.44309835948,-36295.29908839454,-42005.27572694728,-31270.269306930222,-42600.52503353656
14258.58011944057,6322.079160461326,-30707.586492012324,-37773.75522539082,-36158.50641232805,-41931.62672896704,-31154.30845669609,-42504.054904467455
14379.391298221506,6262.690575443576,-30798.848664623343,-37889.15728201357,-35989.84014866831,-42036.27759650679,-31125.16178192637,-42537.26959672804
14425.793519710724,6211.303914940824,-30879.136130706804,-37970.89761148663,-36095.407437730726,-42120.9907079924,-31232.785431478675,-42634.812609531
14304.73647174078,6260.187180064581,-30799.18394079017,-37871.43234866051,-36281.6645242768,-42021.01135504381,-31279.835853557095,-42617.646469789324
14248.901814091423,6328.628221586731,-30699.36105005277,-37769.4636904554,-36191.07290399944,-41920.83083639513,-31171.429892948854,-42514.35905866135
14351.809245563656,6275.565180249832,-30779.60381264732,-37876.52854639632,-36004.05585814189,-42015.84810207464,-31126.5475900826,-42533.89448331529
14425.234726099341,6209.672237595587,-30877.01271498355,-37975.59147782224,-36063.33268443736,-42124.76815280535,-31218.860294683018,-42626.14013268234
14320.181527159397,6243.199854278548,-30822.832086423885,-37899.23791876291,-36268.901678192815,-42051.61089320313,-31288.798903083672,-42630.185798428756
14225.074854502065,6307.572878309832,-30723.992672442517,-37796.66576345751,-36244.381814525346,-41952.16798212147,-31213.18295159137,-42544.46685844265
14326.21649816233,6291.837250213296,-30753.005236745506,-37843.693833791476,-36026.92169271966,-41983.080444703155,-31122.591331314008,-42516.19190170669
14431.359104080095,6221.071627267794,-30863.042874698986,-37972.97632372097,-36023.99361419602,-42096.87317572513,-31192.060553081104,-42607.14114989533
14361.107571257064,6245.770304890908,-30826.00603413654,-37905.339944999214,-36224.22054102666,-42055.56715197172,-31268.034132484692,-42626.475408849175
14228.517023148182,6299.123918905726,-30737.157849926694,-37813.09429563216,-36267.69468399223,-41964.774365994264,-31224.537637774665,-42556.73796614861
14275.858017904524,6274.827572682807,-30765.701027596122,-37862.37989215612,-36083.42690270268,-42007.60030837063,-31147.53587812613,-42533.78272459302
14407.241571812818,6214.701380098031,-30865.881546244807,-37965.44378583953,-36017.936291448634,-42096.47084432493,-31183.052800065616,-42601.24028935913
14370.808228350668,6228.000668048939,-30851.039987926484,-37936.07359362526,-36197.4431511692,-42068.240591077876,-31266.76008305074,-42634.38792638635
14236.608354641005,6295.502936303966,-30740.37650112826,-37812.4237432985,-36278.356466097415,-41957.51004904629,-31236.406414080433,-42560.42600398374
14261.552901453126,6299.705064261564,-30731.88283823524,-37815.62004275561,-36096.43561797567,-41965.824897983664,-31137.11996520996,-42499.02576196501
14382.140562789507,6212.197984719037,-30853.029293183004,-37950.33400658775,-35997.50679701648,-42070.051082378755,-31161.483366666245,-42566.88565813132
14361.845178824089,6184.593580316732,-30887.339220921902,-37974.54094583284,-36173.415025879745,-42103.71280952845,-31275.834891299593,-42641.62989158987
14220.783319566646,6245.23386302398,-30789.550338929934,-37857.64132233159,-36310.162998457316,-42012.20476772842,-31284.373257681524,-42596.546423023516
14224.896040546422,6283.209476853547,-30738.07427144936,-37817.00585091184,-36148.51518255653,-41955.85601995659,-31169.775863859162,-42515.90132902877
14364.728553858824,6223.440912180056,-30834.656159240745,-37940.54394251632,-35998.55732900588,-42066.765375943825,-31158.242363720223,-42562.147088306796
14386.61091168057,6191.7908420313415,-30889.105008733874,-37984.219251181996,-36135.21589460563,-42116.29684165679,-31263.742597549273,-42638.075964221476
14251.494616448239,6246.977299091494,-30799.519216957,-37860.323531666225,-36306.34085015546,-42017.055096275224,-31291.90579556296,-42602.78255972655
14217.363502664984,6289.065633900837,-30728.306559122393,-37787.14392031955,-36188.77067432054,-41942.73554596133,-31184.17038728838,-42514.60492785036
14342.488568125793,6235.153226274637,-30814.181961319682,-37901.45074146399,-36009.57673902235,-42042.11140180963,-31148.429947904344,-42542.87988458632
14403.061795599675,6195.881211266663,-30883.114741219848,-37974.09391094374,-36098.02259183199,-42111.89354799909,-31240.496783315753,-42621.82624600247
14283.122334852498,6240.405886221634,-30809.19752230615,-37885.26807847835,-36284.74906501163,-42031.4719714489,-31288.32951645011,-42606.64941151731
14197.403394866395,6275.431069783101,-30738.02956796045,-37801.94077514896,-36229.8531806294,-41960.52753454776,-31210.03135562317,-42532.32986120342
14318.371035858518,6248.385458992178,-30787.00224006203,-37875.5897731292,-36025.02179444096,-42024.98996555686,-31138.148145454903,-42528.79828557948
14401.385414765527,6183.967731471984,-30882.623002841832,-37980.218288924494,-36063.0644635039,-42131.00428950838,-31219.84377143905,-42618.58524305645
14296.30986408113,6209.292257939846,-30835.371415063313,-37915.73350617093,-36270.60041077142,-42054.18134381549,-31295.079743275615,-42627.70475479421
14207.394624637918,6284.8858576876955,-30727.636006788733,-37800.86789141511,-36250.14856459481,-41954.76078447828,-31216.289844070656,-42535.436753682705
14299.327349582596,6264.5234184889105,-30757.006199003008,-37846.688967548485,-36041.04799521542,-41992.13290120756,-31127.01697671616,-42508.48054986961
14415.623475983559,6201.402092147123,-30860.114796175338,-37963.49918407192,-36026.89934097521,-42100.248289137875,-31187.321983256577,-42589.72914096465
14331.536213342693,6208.822871306285,-30847.955447191653,-37925.12123884216,-36239.755003423095,-42070.051082378755,-31287.457798416355,-42627.369478627385
14215.597714853015,6280.102584374259,-30735.41441385918,-37797.671591958,-36276.098939907424,-41961.39925258151,-31233.590094279065,-42546.836143354914
14281.73652669627,6278.448555284567,-30732.955721969098,-37817.899920690055,-36063.019760014984,-41967.21070613989,-31124.647691803897,-42494.17543341821
14391.684757671925,6193.243705420936,-30849.877697214808,-37949.886971698645,-36000.85955868477,-42083.059797651746,-31164.612610889988,-42567.01976859805
14324.473062094816,6165.6169492741765,-30871.938868992194,-37956.525439801866,-36208.28374723002,-42102.706981027965,-31282.830987314104,-42634.05265021952
14189.066194184566,6230.66052563912,-30749.496012866024,-37804.86885367261,-36287.54303306854,-41972.172793408965,-31241.502611816242,-42553.85459111388
14201.203191423798,6232.9404035735615,-30728.977111456054,-37807.34989730715,-36101.062429077916,-41953.240865855325,-31127.307549394078,-42486.19586064766
14327.26703015173,6159.64903350461,-30837.070147641916,-37937.59351224822,-35988.32023004535,-42075.862535937136,-31140.383319900433,-42549.87598060083
14290.118430867009,6109.11173929116,-30875.82807252742,-37969.64591379713,-36157.50058382757,-42110.731257287414,-31252.253800899245,-42624.799028015026
14126.704827154259,6147.087353120727,-30782.978926060074,-37835.937778465486,-36298.763608785106,-41987.99782848333,-31259.115786447026,-42572.38418726733
14108.175231000809,6166.488667307934,-30731.12287892376,-37794.78821692327,-36143.88837145428,-41941.46149652738,-31147.759395570683,-42489.88389848279
14204.62300832546,6067.068107970728,-30842.166345377726,-37938.93461691554,-35999.45139878409,-42057.64586420606,-31142.417328645868,-42545.025652054035
14200.577342579048,6006.159604330016,-30904.818285085952,-37989.60602159572,-36132.667795737725,-42113.16759743304,-31248.163431663925,-42627.97297572768
14047.713762249205,6046.660965283033,-30817.66883345471,-37878.428444675024,-36306.09498096645,-42018.57501489818,-31277.66773434493,-42593.61834449987
13986.268816741565,6069.973834749918,-30747.55141109841,-37811.21674909792,-36196.68319185772,-41945.3507000626,-31174.89441333943,-42508.949936503166
14098.429870418297,6001.309275783215,-30825.87192366981,-37907.306898511284,-36009.8002564669,-42027.13573302457,-31126.59229357151,-42526.89838730078
14153.862196667456,5945.69813557841,-30904.997099041597,-37996.95974552152,-36092.05467606243,-42107.0879229412,-31217.675652226884,-42608.370495840376
13999.322235503465,5957.522208395268,-30856.04677868447,-37926.84232316522,-36303.27866116508,-42050.202733302445,-31293.96215605285,-42628.46471410569
13911.748100727571,6010.384084032069,-30765.119882240284,-37820.269205602315,-36240.20203831221,-41948.99403440882,-31195.569776960587,-42522.785666321004
14012.286247287542,5964.071269520673,-30821.423926523203,-37907.97745084494,-36034.007195711994,-42015.0657910187,-31121.07141269105,-42499.3833898763
14099.905085552346,5894.222068097838,-30924.331357995437,-38020.18320801058,-36071.84869907483,-42120.92365275904,-31207.192684077345,-42594.26654508907
13991.72264238866,5912.5057950622795,-30887.808607555464,-37949.954026932006,-36284.52554756708,-42067.815907933225,-31286.988411782793,-42610.49391156363
13890.670405706216,5982.80203137422,-30772.80888233291,-37822.88435970359,-36270.75687298261,-41944.45663028439,-31201.22476830778,-42512.70502957166
13985.10652602989,5961.143190997028,-30799.161589045718,-37881.60239238768,-36058.974094268575,-41988.7130843059,-31109.515560807653,-42487.44755833716
14102.855515820447,5890.221105840338,-30912.887264834317,-38012.2706904734,-36045.25012317301,-42108.38432411961,-31175.810834862095,-42578.59797222591
14035.532061521062,5905.934382192419,-30889.082656989416,-37961.39812009312,-36244.73944243663,-42074.18615510299,-31262.22267892631,-42607.2082051287
13922.096958410379,5983.629045919067,-30773.255917222014,-37827.93585395048,-36287.028942946075,-41962.315674104175,-31210.187817834358,-42526.54075938949
13993.510781945084,6002.09158683915,-30772.47360616608,-37854.176801941016,-36087.204347515624,-41980.286476646244,-31108.48738056271,-42482.41841583472
14135.779635403114,5944.357030911092,-30878.286764417502,-37967.008407951405,-36015.41054432518,-42084.08797789669,-31140.271561178157,-42550.255960256574
14095.188867472276,5929.917803992964,-30899.520921650044,-37973.08808244325,-36214.87751184434,-42089.92178319953,-31255.695969545362,-42613.37728659836
13968.47682815514,6000.4375577494575,-30794.110094798816,-37856.25551417536,-36317.80729506103,-41992.043494229736,-31242.441385083366,-42558.88373361632
14016.331913033953,6040.357773346636,-30749.831289032853,-37817.31877533421,-36129.06916488042,-41962.472136315366,-31120.78084001313,-42484.899459469256
14155.80679843507,5973.213133002893,-30868.362589879347,-37956.033701423854,-36019.344451349316,-42091.933440200504,-31140.204505944792,-42556.067413814955
14166.155656117877,5963.557179398201,-30901.73374435112,-37982.811091281306,-36181.8416335394,-42121.68361207052,-31246.867030485515,-42627.861217005404
14043.556337780517,6046.728020516399,-30796.412324477715,-37857.2836944203,-36320.31069044003,-42003.12995947957,-31248.543411319664,-42568.96437036567
14046.372657581886,6101.2215734984375,-30735.45911734809,-37805.89703391755,-36165.56956357593,-41956.54892403471,-31138.25990417718,-42486.79935774796
14190.0496709406,6049.00789845084,-30831.593970250367,-37919.84622715071,-36003.16178836367,-42065.04429162077,-31119.01505220116,-42524.84202681089
14236.697761618825,6020.956459159429,-30891.20607271267,-37967.500146329425,-36126.58812124588,-42104.29395488429,-31226.526943031186,-42605.062437660985
14123.55323118606,6092.102061760672,-30805.867112382308,-37862.64811308958,-36300.507044852624,-42019.20086374293,-31262.557955093143,-42579.961428637675
14084.88471327838,6154.172856113059,-30727.188971899628,-37787.05451334173,-36194.671534856745,-41944.367223306566,-31156.87890730845,-42490.50974732754
14221.09624398902,6115.459634716468,-30800.927376857686,-37886.765645356856,-36003.87704418624,-42029.41561095901,-31109.135581151913,-42504.971325990125
14289.514933766715,6063.313014902236,-30891.20607271267,-37976.105567944716,-36085.57267017039,-42116.94504224599,-31209.22669282278,-42598.42396955776
14171.654185253881,6102.137995021105,-30832.152763861748,-37887.793825601795,-36291.87927149287,-42049.3757187576,-31274.13615872099,-42596.52407127906
14101.782632086592,6167.270978363869,-30738.253085405006,-37795.39171402356,-36242.616026713375,-41960.862810714585,-31189.579509446565,-42515.11901797283
14221.610334111492,6144.673364719554,-30782.397780704236,-37860.97173225543,-36032.353166622306,-42011.534215394764,-31113.091839920504,-42506.1336167018
14320.829727748602,6088.414023925546,-30879.694924318188,-37965.42143409508,-36053.6096755993,-42105.27743164032,-31185.37738148897,-42578.016826870065
14241.570441910082,6128.535405222822,-30832.599798750856,-37882.339999954704,-36258.79868969902,-42054.0248816043,-31261.730940548296,-42588.81271944198
14146.352010530474,6203.816080548297,-30730.429974845647,-37781.51128071681,-36263.49255603463,-41956.034833912236,-31193.625175192974,-42508.30173591396
14232.853261572513,6194.070719965783,-30757.922620525675,-37824.873664960105,-36054.54844886642,-41981.337008635644,-31105.760467739165,-42482.19489839017
14358.782989833713,6133.586899469722,-30867.177947423217,-37942.17561986156,-36024.32889036285,-42094.302725112764,-31161.55042189961,-42568.07030058745
14292.554771012638,6149.031954888339,-30849.654179770256,-37907.709229911474,-36225.74045964962,-42060.17161132951,-31253.013760210724,-42594.06537938898
14175.319871344553,6225.296106969847,-30733.045128946917,-37779.34316150465,-36271.002742171615,-41938.80163893719,-31199.436628751355,-42494.622468307316
14227.310028947597,6221.13868250116,-30738.834230760844,-37796.95633613543,-36080.27530673448,-41951.2515605988,-31104.35230783848,-42454.702252710136
14348.724704828825,6139.6665739615655,-30865.09923518887,-37946.109526885695,-36013.37653557975,-42088.312457598746,-31151.69330259482,-42547.59610266639
14312.492527066772,6128.200129055993,-30885.774598810032,-37945.349567574216,-36208.17198850775,-42099.71184727095,-31265.75425455025,-42612.259699375594
14192.865990741968,6212.712074841509,-30765.812786318398,-37808.936871163474,-36306.05027747754,-41981.64993305802,-31239.110975159525,-42533.492151915096
14222.884383545446,6244.920938601606,-30728.21715214457,-37791.86013839962,-36127.50454276855,-41955.543095534216,-31125.988796471214,-42466.19104936017
14360.638184623504,6176.926931968562,-30835.70669123014,-37911.73254391343,-36001.21718659606,-42064.597256731664,-31131.97906398524,-42525.33376518891
14363.454504424872,6147.288518820825,-30879.35964815136,-37948.72468098697,-36162.75324377456,-42107.82553050823,-31247.85050724155,-42605.978859183655
14236.921279063377,6219.372894689191,-30772.786530588455,-37821.29738584726,-36302.56340534251,-41999.17370071098,-31248.90103923095,-42550.03244281202
14222.236182956241,6258.242578296969,-30715.9013409497,-37766.82618460968,-36164.02729320852,-41945.685976229426,-31139.98098850024,-42472.78481397448
14358.358306689062,6203.033769492361,-30808.705783928133,-37879.50132840888,-35998.31145981687,-42044.72655591089,-31113.985909698717,-42508.12292195832
14394.076394328642,6163.292367850825,-30880.36547665185,-37955.251390367914,-36120.687260709674,-42119.202568435976,-31224.13530637447,-42596.7028852347
14265.933843366367,6215.6848568540645,-30800.927376857686,-37851.96397923994,-36300.372934385894,-42028.119209780605,-31265.08370221659,-42572.630056456335
14212.110842717988,6260.969491120517,-30729.491201578523,-37795.324658790196,-36213.13407577683,-41967.74714800682,-31171.564003415588,-42488.74395951557
14333.480815110304,6213.427330664079,-30805.33067051538,-37883.614049388656,-36026.184085152636,-42036.83639011817,-31126.30172089359,-42504.524291101014
14411.71192070388,6166.913350452584,-30880.49958711858,-37947.51768678638,-36090.154777783726,-42106.57383281873,-31213.965262647303,-42585.504661262596
14299.372053071505,6205.850089293729,-30820.48515325608,-37877.46731966345,-36291.78986451505,-42051.2756170363,-31275.6337255995,-42586.30932406298
14216.692950331326,6268.569084235321,-30725.423184087656,-37776.213917280904,-36246.77345118207,-41956.77244147926,-31187.858425123504,-42497.908174742246
14320.74032077078,6237.94719433155,-30775.200518989626,-37848.76767978283,-36041.27151265997,-42009.25433746032,-31116.399898099888,-42489.12393917131
14412.874211415556,6166.533370796844,-30887.96506976665,-37972.12695743167,-36068.272419961984,-42122.8906062711,-31200.35305027402,-42584.297667062005
14323.668399294425,6187.275789651369,-30855.040950183982,-37916.26994803786,-36284.45849233371,-42085.026751163816,-31287.681315860907,-42609.264565618585
14228.29350570363,6266.088040600782,-30733.38040511375,-37781.48892897236,-36282.24566963263,-41963.12033690457,-31208.35497478902,-42510.60396559286
14313.923038711911,6263.38347952169,-30746.56793434238,-37813.4742752879,-36066.90896355021,-41992.40112214102,-31112.264825375656,-42472.874220952304
14422.530165020247,6185.755871028408,-30868.273182901525,-37946.310692585794,-36039.03633821444,-42103.75751301736,-31175.07322729507,-42553.38520448032
14364.214463736353,6195.300065910825,-30853.76690075003,-37910.950232857496,-36240.78318366804,-42076.197812103965,-31269.79992029666,-42589.03623688653
14240.363447709495,6271.161886592136,-30739.437727861135,-37782.36064700611,-36300.439989619255,-41963.47796481585,-31225.811687208618,-42515.029610995014
14289.380823299984,6281.443689041578,-30730.631140545745,-37798.67742045849,-36101.15183605574,-41971.479889330854,-31117.405726600377,-42461.58659000237
14417.076339373154,6206.8782695386735,-30841.09346164387,-37920.36031727318,-36012.41541056817,-42094.593297790685,-31144.093709480014,-42527.56893963444
14389.159010548474,6193.534278098855,-30861.18767990919,-37915.68880268202,-36200.23711922611,-42082.8809836961,-31251.270324143214,-42588.27627757505
14262.223453786786,6269.999595880461,-30750.03245473295,-37787.7697691643,-36310.76649555761,-41967.09894741762,-31234.685329757373,-42530.31820420244
14283.792887186157,6297.827517727318,-30707.810009456876,-37755.5609054042,-36129.583255002886,-41936.07472611365,-31117.942168467307,-42448.28730205147
14419.42327254096,6232.314554728813,-30815.254845053536,-37886.340962212205,-35993.84111092581,-42047.967558856915,-31117.24926438919,-42492.11907292832
14417.322208562162,6192.550801342822,-30873.324677148426,-37932.0055761344,-36162.59678156338,-42100.1365304156,-31239.401547837446,-42582.353065294395
14276.595625471547,6249.324232259301,-30778.55328065792,-37816.75998172283,-36320.19893171775,-42002.63822110155,-31259.18284168039,-42547.104364288374
14261.15057005293,6292.887782202695,-30708.659375746178,-37769.95542883342,-36175.538441603,-41945.64127274052,-31145.412462402877,-42458.79262194546
14408.403862524494,6248.161941547625,-30780.922565570185,-37851.092261206184,-35990.041314368405,-42022.33010796668,-31101.804208970574,-42474.88587795328
14439.159862894996,6195.344769399735,-30862.43937759869,-37922.86371265217,-36111.903025138745,-42100.1365304156,-31215.351070803532,-42569.277294788044
14299.617922260515,6237.678973398087,-30797.775780889486,-37831.936816207985,-36309.69361182375,-42030.46614294841,-31275.589022110587,-42566.52803022004
14243.447988444328,6289.736186234497,-30720.528152051946,-37762.13231827406,-36223.43822997072,-41952.92794143295,-31180.057666308603,-42482.3290088569
14364.929719558922,6246.731429902486,-30785.95170807263,-37848.67827280501,-36028.26279738698,-42032.790724371764,-31123.217180158757,-42489.66038103824
14434.465996559382,6186.269961150881,-30877.6385638283,-37939.828686693756,-36093.95457434113,-42111.155940432065,-31213.115896358002,-42576.31809429146
14321.924963226911,6219.998743533939,-30821.58038873439,-37864.45860439046,-36297.914242495805,-42060.3280735407,-31279.612336112543,-42578.82148967046
14229.142871992932,6274.7381657049855,-30729.982939956542,-37765.19450726444,-36266.84531770293,-41964.93082820545,-31203.63875670895,-42493.25901189554
14329.569259830627,6245.658546168631,-30771.98186778806,-37825.946548693966,-36056.3589401673,-42002.88409029056,-31126.055851704583,-42480.40675883374
14437.438778571937,6187.476955351467,-30866.73091253411,-37928.78692493283,-36056.314236678394,-42100.29299262679,-31189.490102468742,-42558.41434698276
14354.469103153839,6210.208679462515,-30835.997263908062,-37882.60822088816,-36266.688855491746,-42064.91018115404,-31273.107978476048,-42577.34627453641
14232.026247027667,6271.720680203519,-30734.520344080967,-37766.915591587494,-36290.24759414764,-41960.01344442528,-31217.60859699352,-42501.64091606628
14316.225268390808,6275.609883738743,-30740.667073806177,-37794.899975645545,-36072.7651205975,-41982.07461620267,-31118.992700456703,-42463.64295049226
14431.224993613363,6197.535240356355,-30856.11383391784,-37928.36224178818,-36032.10729743329,-42102.66227753905,-31173.59801216102,-42545.718556132146
14374.9433010749,6201.357388658213,-30851.19645013767,-37898.92499434054,-36230.61313994088,-42083.17155637402,-31270.33636216359,-42584.6999984622
14253.394514726939,6275.989863394483,-30739.214210416583,-37774.02344632429,-36298.00364947363,-41970.228191641356,-31232.114879145014,-42510.22398593712
14288.933788410877,6274.492296515978,-30731.480506835047,-37787.07686508619,-36109.042001848466,-41975.43614809944,-31130.07916570654,-42459.77609870149
14415.04233062772,6201.625609591676,-30837.070147641916,-37901.227224019436,-36011.11900938976,-42084.15503313005,-31149.145203726915,-42521.82454130943
14392.265903027763,6190.405033875112,-30857.142014162782,-37911.17375030205,-36189.39652316529,-42095.97910594691,-31254.24310615577,-42580.07318735996
14267.364355011507,6267.898531901662,-30745.427995375157,-37787.00980985282,-36304.060972221014,-41982.99103772534,-31240.921466460404,-42518.874111041325
14279.367241784006,6296.397006082178,-30701.75268670949,-37740.85345755261,-36131.63961549278,-41941.46149652738,-31125.96644472676,-42441.15709557022
14405.94517063441,6217.316534199302,-30812.259711296527,-37874.226316717424,-35997.81972143886,-42062.652654964055,-31127.553418583087,-42497.57289857542
14410.504926503292,6176.971635457473,-30869.86015675785,-37930.06097436678,-36153.276104125514,-42118.934347502516,-31243.13428916148,-42584.00709438409
14284.374032541995,6246.016174079916,-30768.383236930757,-37808.243967085364,-36307.637251333865,-42002.43705540145,-31257.484109101788,-42542.54460841949
14259.988279341254,6291.39021532419,-30703.272605332448,-37751.09055651314,-36178.8912032713,-41946.78121170774,-31148.184078715334,-42454.344624798854
14385.22510352434,6227.8889093266625,-30796.747600644543,-37867.90077303658,-36011.07430590085,-42052.39320425907,-31122.591331314008,-42483.80422399095
14439.361028595094,6189.533315841355,-30863.31109563245,-37925.79179117582,-36111.81361816092,-42106.417370607545,-31220.491972028256,-42561.56594295096
14314.235963134286,6239.087133298771,-30789.70680114112,-37833.836714486686,-36304.6197658324,-42032.3213377382,-31270.358713908045,-42551.26178875707
14255.361468239007,6295.81586072634,-30700.25511983098,-37740.11584998558,-36219.37021247986,-41947.60822625259,-31168.725331869762,-42464.559372014926
14366.650803881981,6243.870406612206,-30772.361847443804,-37835.356633109644,-36026.8546374863,-42025.63816614606,-31114.120020165446,-42479.512689055526
14446.021848442775,6186.292312895336,-30864.227517155115,-37940.52159077187,-36078.37540845578,-42109.81483576475,-31198.006117106215,-42555.97800683713
14336.297134911674,6219.886984811662,-30811.566807218413,-37848.074775704714,-36285.978410956675,-42044.525390210794,-31266.00012373926,-42553.2957975025
14246.800750112625,6290.183221123603,-30710.827494958343,-37750.12943150156,-36259.692759477235,-41946.44593554091,-31187.903128612415,-42467.46509879412
14344.120245471031,6265.95393013405,-30748.020797731973,-37804.8241501837,-36043.61844582778,-41997.87729953257,-31105.06756366105,-42451.193028830654
14438.802234983712,6190.5614960862995,-30862.551136320966,-37933.68195696855,-36053.83319304385,-42102.505815327866,-31179.923555841873,-42541.91875957474
14351.965707774843,6206.61004860521,-30838.299493586957,-37883.23406973291,-36268.32053283698,-42067.100652110654,-31271.208080197346,-42570.43958549972
14243.9620785668,6282.33775881979,-30718.98588168453,-37755.42679493747,-36283.5644225555,-41951.78800246573,-31202.387059019457,-42480.071482666914
14315.93469571289,6281.466040786033,-30725.244370132015,-37776.10215855863,-36072.27338221948,-41973.67036028748,-31100.619566514444,-42436.70909842361
14429.816833712679,6200.75389155792,-30848.849516969865,-37919.823875406255,-36030.76619276598,-42095.53207105781,-31158.77880558715,-42522.94212853219
14374.004527807776,6196.060025222305,-30851.934057704697,-37902.12129379765,-36232.155410308296,-42085.786710475295,-31262.915583004426,-42573.27825704554
14252.433389715361,6276.548657005866,-30731.167582412672,-37766.781481120765,-36298.22716691818,-41966.6072090396,-31222.257759840224,-42497.17056717522
14291.236018089774,6289.982055423505,-30715.387250827225,-37766.155632276015,-36107.544434969954,-41954.8054879672,-31113.62828178743,-42438.25136879103
14421.412577797482,6215.483691153967,-30827.391842292767,-37904.95996534347,-36010.06847740036,-42070.31930331222,-31135.667101820363,-42503.22788992261
14405.721653189858,6198.496365367933,-30855.845612984376,-37912.51485496937,-36187.85425279787,-42101.589393805196,-31247.85050724155,-42573.52412623455
14272.594663214048,6270.67014821412,-30749.384254143748,-37781.71244641691,-36313.80633280353,-41985.22621217087,-31245.481222329287,-42518.22591045212
14273.958119625822,6301.023817184427,-30704.345489066305,-37743.22274246487,-36150.61624653533,-41932.45374351189,-31122.099592935992,-42434.02688908898
14410.527278247748,6238.349525731746,-30804.034269336975,-37863.29631367878,-36004.234672097526,-42043.78778264377,-31105.760467739165,-42479.40093033325
14418.596257996114,6195.344769399735,-30861.701770031665,-37913.00659334738,-36148.06814766743,-42108.160806675056,-31214.971091147792,-42561.722405162145
14278.651985961436,6249.23482528148,-30772.13832999925,-37799.16915883651,-36316.19796946025,-41994.770407053285,-31238.820402481608,-42525.33376518891
14240.989296554244,6288.5291920339105,-30708.413506557168,-37740.71934708588,-36195.49854940159,-41945.753031462795,-31133.454279119287,-42442.654662448724
14361.50990265726,6226.145473259148,-30797.66402216721,-37850.5334675948,-36019.612672282776,-42038.49041920786,-31099.30081359158,-42468.40387206124
14418.082167873643,6183.3418826272355,-30869.703694546664,-37921.38849751813,-36116.373374029805,-42103.35518161717,-31197.760247917206,-42554.68160565873
14291.705404723336,6227.933612815573,-30797.775780889486,-37832.94264470848,-36307.771361800595,-42028.63329990307,-31248.61046655303,-42543.23751249761
14228.852299315013,6287.724529233519,-30703.40671579918,-37732.33744291514,-36227.84152362842,-41935.78415343573,-31146.395939158912,-42444.889836894254
14340.834539036101,6243.468075212011,-30770.350190442827,-37819.844522457664,-36027.234617142036,-42010.39427642754,-31085.778008196117,-42448.71198519612
14422.083130131143,6181.17376341507,-30865.903897989265,-37922.751953929896,-36076.520213665994,-42105.12096942913,-31175.520262184178,-42543.17045726424
14314.414777089927,6209.493423639944,-30818.00410962154,-37852.58982808469,-36284.79376850054,-42055.880076394096,-31249.169260164414,-42554.92747484773
14224.24783995722,6278.940293662584,-30706.8488844453,-37728.537646357734,-36256.831736186956,-41935.80650518018,-31159.87404106546,-42451.483601508575
14310.97260844381,6250.240653781969,-30751.21709718908,-37800.73378094838,-36052.60384709881,-41991.4623488739,-31084.2357378287,-42437.49140947955
14412.47188001536,6179.564437814288,-30865.05453169996,-37924.47303825296,-36056.537754122946,-42112.206472421465,-31161.72923585525,-42537.537817661505
14333.525518599216,6196.440004878045,-30840.5793715214,-37881.98237204342,-36263.20198335672,-42068.598218989166,-31249.370425864512,-42559.196658038694
14221.029188755654,6270.893665658673,-30725.847867232307,-37744.47444015437,-36290.716980781195,-41956.370110079064,-31188.283108268155,-42472.941276185666
14291.392480300961,6270.8042586808515,-30731.189934157126,-37773.017617823796,-36080.94585906814,-41974.139746921035,-31084.123979106425,-42426.36024074081
14418.864478929578,6205.358350915712,-30835.14789761876,-37898.768532129354,-36014.96350943607,-42078.164765616035,-31119.417383601354,-42498.958706731646
14374.384507463517,6202.854955536718,-30839.90881918774,-37882.004723787875,-36210.36245946437,-42067.14535559957,-31218.860294683018,-42545.80796310997
14243.358581466508,6269.0384708688825,-30733.022777202463,-37759.3607019616,-36299.523568096585,-41954.82783971165,-31193.26754728169,-42476.49520355406
14264.97271835479,6271.027776125405,-30726.18314339914,-37773.8669841131,-36122.00601363254,-41964.1038136606,-31100.507807792164,-42431.568197198896
14402.346539777105,6203.257286936914,-30832.085708628383,-37893.22529950444,-36012.50481754599,-42070.051082378755,-31117.450430089288,-42496.2317939081
14391.349481505094,6188.0357489628495,-30858.617229296833,-37907.64217467811,-36180.478177127625,-42093.92274545703,-31223.196533107348,-42560.47070747265
14259.854168874523,6260.924787631606,-30749.339550654837,-37783.38882725106,-36309.49244612366,-41979.12418593457,-31216.64747198194,-42496.634125308294
14262.446971231338,6296.106433404259,-30697.148227351696,-37740.74169883033,-36150.95152270216,-41941.39444129401,-31104.419363071844,-42419.23003425956
14398.99377810881,6237.410752464623,-30794.33361224337,-37847.471278604426,-35998.780846450434,-42043.43015473249,-31093.2881943331,-42462.92769466969
14407.62155146856,6187.141679184638,-30860.718293275633,-37910.5479014573,-36143.48604005409,-42107.6914200415,-31213.048841124637,-42553.7428323916
14285.044584875654,6254.66629918412,-30757.319123425383,-37790.42962675448,-36303.12219895389,-41995.75388380932,-31228.628007009986,-42509.48637837009
14241.324572721074,6291.099642646271,-30694.197797083594,-37733.030346993255,-36193.6433546118,-41934.152476090494,-31124.379470870434,-42429.26596752
14367.455466682371,6234.8179501078075,-30775.871071323287,-37833.07675517521,-36012.43776231263,-42022.441866688954,-31085.73330470721,-42453.02587187599
14424.072435387665,6186.493478595434,-30857.499642074068,-37916.62757594915,-36104.79517040195,-42109.99364972039,-31184.88564311095,-42541.56113166346
14305.07174790761,6233.745066373953,-30781.05667603692,-37829.366365595626,-36293.22037616019,-42026.442828946456,-31231.46667855581,-42528.21714022364
14238.754122108714,6295.681750259609,-30684.83241615682,-37730.86222778109,-36217.4479624567,-41916.33813575961,-31128.603950572488,-42429.958871598115
14330.84330926458,6239.265947254414,-30761.90123103872,-37824.65014751555,-36032.621387555766,-42003.82286355768,-31079.67598195982,-42443.97341537159
14415.51171726128,6180.950245970517,-30855.19741239517,-37923.69072719702,-36074.41914968719,-42106.0373909518,-31163.11504401148,-42537.26959672804
14314.750053256757,6211.996819018939,-30806.850589138343,-37858.80361304327,-36281.73157951017,-42047.967558856915,-31235.71351000232,-42549.02661431153
14219.91160153289,6283.254180342457,-30697.12587560724,-37740.56288487469,-36260.13979436634,-41940.05333662669,-31152.475613650757,-42458.814973689914
14313.45365207835,6268.725546446508,-30724.37265209826,-37792.46363549992,-36043.81961152788,-41974.698540532416,-31059.246487527667,-42435.43504898966
14419.512679518783,6193.690740310042,-30838.120679631316,-37918.214549805474,-36031.54850382191,-42086.01022791985,-31123.239531903215,-42525.55728263346
14354.938489787399,6217.249478965936,-30806.850589138343,-37871.70056959397,-36228.869703873366,-42045.82179138921,-31205.94098638785,-42550.1442015343
14235.468415673784,6285.467003043534,-30700.366878553257,-37755.13622225955,-36267.49351829213,-41942.48967677232,-31154.12964274045,-42474.21532561962
14283.725831952792,6273.419412782123,-30718.74001249552,-37782.74062666186,-36075.29086772095,-41958.29236010222,-31062.48749047369,-42438.005499602026
14404.42525201145,6194.741272299442,-30835.840801696875,-37906.63634617762,-36007.54273027691,-42063.502021253356,-31100.68662174781,-42509.46402662564
14360.101742756575,6188.147507685127,-30847.217839624627,-37907.798636889296,-36203.25460472758,-42067.79355618877,-31205.583358476564,-42568.56203896547
14229.120520248476,6261.193008565069,-30734.922675481164,-37776.66095217001,-36291.499291837135,-41945.70832797389,-31173.285087738645,-42495.74005553008
14255.450875216828,6275.252255827458,-30713.330890337336,-37767.29557124324,-36110.04783034895,-41933.928958645934,-31068.276592287613,-42442.453496748625
14401.050138598697,6217.495348154945,-30812.796153163454,-37893.113540782164,-35985.436855010616,-42045.106535566636,-31072.322258034023,-42504.63604982329
14389.047251826198,6195.523583355378,-30851.57642979341,-37915.97937535994,-36151.331502357905,-42072.509774268845,-31178.940079085838,-42568.87496338785
14255.450875216828,6265.104563844749,-30744.332759896846,-37786.227498796885,-36285.263155134104,-41948.0999646306,-31179.476520952765,-42511.20746269315
14243.716209377792,6291.4349188131,-30699.539864008413,-37759.62892289507,-36138.278083596,-41910.794903134694,-31077.10553134746,-42442.09586883734
14382.095859300598,6236.270813497403,-30788.343344729346,-37867.051406747276,-35976.71967467304,-41998.54785186623,-31057.748920649163,-42477.9257151992
14409.85672591409,6198.764586301397,-30850.369435592824,-37932.29614881231,-36106.784475658475,-42063.88200090909,-31166.847785335518,-42563.21997204065
14284.77636394219,6262.310595787835,-30752.89347802323,-37808.33337406318,-36270.80157647152,-41954.693729244915,-31187.07611406757,-42524.104419243864
14228.159395236898,6293.558334536355,-30690.800331926388,-37761.6629316405,-36171.20220317867,-41894.74635061579,-31095.612775756454,-42451.46124976412
14351.116341485542,6240.674107155098,-30771.735998599055,-37873.891040550596,-35989.57192773485,-41989.92007850648,-31060.18526079479,-42481.814918734424
14422.038426642232,6199.077510723771,-30840.62407501031,-37930.5527127448,-36064.83025131586,-42059.18813457348,-31147.178250214845,-42553.541666691504
14309.609152032037,6245.703249657542,-30765.969248529585,-37830.551008051756,-36253.14369835183,-41973.42449109846,-31196.553253716622,-42535.23558798261
14224.24783995722,6288.015101911438,-30687.156997580172,-37762.62405665208,-36202.36053494937,-41903.79880712018,-31121.4960958357,-42461.02779639099
14330.59744007557,6249.994784592961,-30743.28222790745,-37841.21279015694,-36001.306593573885,-41970.0046741968,-31058.687693916287,-42460.6701684797
14422.530165020247,6188.840411763241,-30836.466650541624,-37933.41373603508,-36029.87212298776,-42046.17941930049,-31134.996549486706,-42538.07425952843
14327.155271429452,6214.768435331397,-30797.32874600038,-37874.00279927287,-36240.35850052339,-42006.39331417004,-31216.64747198194,-42556.961483593164
14225.231316713252,6281.153116363659,-30695.136570350718,-37766.490908442844,-36236.35753826589,-41907.15156878848,-31147.98291301524,-42473.924752941704
14311.240829377275,6261.885912643184,-30728.261855633482,-37825.20894112694,-36030.721489277064,-41957.13006939054,-31065.4826242307,-42453.11527885381
14417.27750507325,6185.308836139302,-30846.368473335326,-37943.516724528876,-36015.87993095874,-42055.030710104795,-31136.2482471762,-42545.025652054035
14351.339858930096,6199.993932246439,-30827.816525437418,-37908.73741015642,-36222.03007007004,-42036.076430806694,-31229.79029772166,-42582.28601006103
14237.792997097135,6277.129802361704,-30709.642852502213,-37768.05553055472,-36264.47603279067,-41906.883347855015,-31173.84388135003,-42487.71577927063
14288.844381433057,6268.300863301857,-30718.047108417406,-37793.89414714505,-36067.5124606505,-41924.20594980788,-31078.558394737054,-42444.30869153842
14417.903353918,6196.529411855867,-30830.744603961066,-37921.433201007036,-35997.998535394494,-42046.51469546732,-31118.92564522334,-42520.550491875474
14385.51567620226,6191.008530975406,-30841.518144788522,-37924.62950046414,-36190.13413073232,-42046.73821291187,-31223.04007089616,-42575.66989370226
14259.049506074132,6265.506895244944,-30725.93727421013,-37783.25471678433,-36284.637306289354,-41925.412944008465,-31197.715544428298,-42508.27938416951
14285.357509298028,6291.412567068644,-30695.248329072994,-37766.42385320948,-36105.91275762472,-41907.82212112214,-31091.63416524341,-42445.40392701673
14422.373702809062,6225.474920925489,-30803.922510614695,-37890.90071808109,-35986.55444223338,-42025.12407602359,-31100.373697325434,-42500.36686663233
14414.66235097198,6194.316589154791,-30852.671665271722,-37933.01140463488,-36156.1818309047,-42073.962637658435,-31216.4686580263,-42579.11206234837
14285.558674998127,6261.684746943087,-30742.83519301834,-37806.9252141625,-36294.87440524989,-41947.429412296944,-31216.200437092837,-42522.51744538754
14273.622843458992,6299.012160183449,-30687.35816328027,-37759.1148327726,-36148.179906389705,-41894.925164571425,-31104.978156683228,-42442.520551981994
14401.988911865821,6237.276641997891,-30785.348210972337,-37877.802595830275,-35992.05297136938,-42016.161026497015,-31092.461179788257,-42493.30371538445
14437.461130316393,6199.3680834016905,-30850.816470481932,-37940.56629426078,-36120.10611535384,-42082.769224973825,-31201.291823541145,-42577.748605936606
14310.235000876786,6252.967566605516,-30764.80695781791,-37833.03205168629,-36297.69072505125,-41960.46047931439,-31228.94093143236,-42538.81186709546
14262.715192164802,6299.459195072555,-30687.78284642492,-37767.29557124324,-36193.553947633976,-41894.99221980479,-31125.184133670824,-42451.43889801966
14384.107516301576,6249.972432848505,-30761.94593452763,-37852.81334552924,-36001.93244241863,-41983.92981099246,-31079.54187149309,-42471.13078488479
14441.372685596072,6186.672292551076,-30851.978761193608,-37942.73441347294,-36081.77287361299,-42069.648750978566,-31176.280221495657,-42559.10725106088
14328.630486563503,6228.559461660321,-30786.6669638952,-37873.73457833941,-36281.44100683225,-41998.63725884405,-31234.014777423716,-42552.915817846755
14256.881386861967,6295.726453748519,-30680.876157388233,-37742.95452153141,-36224.48876196012,-41905.31872574314,-31140.49507862271,-42458.323235311895
14363.566263147148,6262.735278932486,-30731.32404462386,-37817.63169975659,-36013.15301813519,-41949.97751116485,-31067.360170764947,-42448.019081118
14455.409581114005,6197.646999078632,-30836.868981941818,-37937.41469829258,-36037.6058265693,-42049.55453271324,-31148.273485693157,-42536.6884513722
14365.98025154832,6228.85003433824,-30794.467722710102,-37867.92312478103,-36242.638378457836,-41998.72666582187,-31226.191666864357,-42552.51348644656
14268.124314322988,6306.365884109246,-30683.78188416742,-37749.57063789018,-36246.54993373751,-41896.601545405574,-31157.862384064483,-42467.33098832738
14341.728608814314,6284.952912921061,-30720.014061929473,-37809.56272000822,-36043.9090185057,-41947.92115067496,-31077.776083681118,-42448.28730205147
14451.609784556602,6208.264077694903,-30836.39959530826,-37927.848151665705,-36019.41150658268,-42050.269788535814,-31138.97515999975,-42532.86630307035
14388.130830303531,6218.188252233059,-30825.111964358326,-37894.47699719393,-36223.058250314985,-42028.63329990307,-31232.874838456493,-42569.16553606577
14260.211796785808,6284.707043732053,-30721.51162880798,-37775.05162656923,-36286.447797590234,-41921.501388728786,-31193.93809961535,-42497.349381130865
14308.983303187288,6285.042319898882,-30718.762364239978,-37796.88928090206,-36086.82436785989,-41924.47417074134,-31091.81297919905,-42440.62065370329
14454.426104357972,6224.513795913911,-30816.595949720857,-37899.819064118754,-35994.98104989303,-42041.105573309134,-31114.20942714327,-42500.70214279916
14415.623475983559,6200.910353769106,-30842.322807588913,-37912.22428229145,-36188.994191765094,-42049.308663524236,-31228.31508258761,-42569.14318432131
14286.028061631689,6272.771212192919,-30729.915884723174,-37796.30813554623,-36296.4166756173,-41929.77153417725,-31210.053707367624,-42508.01116323604
14299.21559086032,6291.747843235475,-30697.684669218623,-37771.20712652292,-36120.79901943195,-41912.18071129092,-31100.127828136425,-42437.62551994628
14430.263868601784,6220.289316211858,-30805.375374004292,-37890.49838668089,-35996.478616771536,-42036.38935522907,-31106.743944495196,-42497.9305264867
14430.040351157231,6189.578019330266,-30853.856307727852,-37939.806334949295,-36157.34412161638,-42088.96065818795,-31219.150867360935,-42575.73694893563
14297.494506537261,6257.8849503856845,-30752.021759989475,-37823.44315331497,-36303.457475120726,-41968.97649395186,-31225.364652319513,-42527.59129137889
14282.45178251884,6295.212363626047,-30690.77798018193,-37757.12552751607,-36160.696883284676,-41894.52283317123,-31111.52721780863,-42439.99480485854
14419.915010918978,6238.595394920754,-30779.961440558607,-37868.16899397004,-35987.381456778225,-41997.85494778812,-31085.73330470721,-42471.57781977389
14455.856616003111,6192.684911809553,-30851.375264093313,-37939.15813436009,-36108.1702838147,-42073.85087893616,-31196.2626810387,-42563.890524374314
14327.669361551925,6243.982165334483,-30769.456120664614,-37838.865856989134,-36292.46041684871,-41984.77917728176,-31234.84179196856,-42542.164628763756
14273.689898692359,6296.352302593267,-30686.799369668886,-37756.007940293304,-36195.096218001396,-41891.97473430332,-31129.43096511733,-42451.483601508575
14396.736251918825,6256.767363162919,-30760.71658858259,-37842.93387448,-36005.10639013128,-41979.4594621014,-31083.20755758376,-42465.98988366007
14456.460113103405,6189.600371074721,-30855.24211588408,-37949.32817808726,-36080.72234162359,-42078.83531794969,-31183.902166354917,-42562.504716218085
14353.016239764243,6242.708115900531,-30783.001277804527,-37845.683139048,-36273.68495150626,-41999.2631076888,-31237.255780369735,-42550.1442015343
14265.263291032708,6304.063654430349,-30684.161863823163,-37750.509411157305,-36226.41101198328,-41920.00382185028,-31149.03344500464,-42458.613807989816
14347.27184143923,6251.738220660475,-30736.196724915117,-37814.7259729774,-36018.159808893186,-41948.837572197626,-31073.708066190255,-42441.78294441497
14429.414502312482,6168.701490009009,-30846.793156479976,-37933.57019824626,-36040.06451845938,-42049.08514607968,-31155.090767752026,-42533.40274493727
14331.670323809425,6173.976501700462,-30819.30051079995,-37903.64121242061,-36253.881305918854,-42029.34855572564,-31243.17899265039,-42562.929399362736
14210.881496772945,6232.694534384553,-30717.35420433929,-37775.5657166917,-36263.82783220147,-41916.874577626535,-31175.45320695081,-42474.125918641796
14255.160302538909,6189.5109640969,-30744.623332574767,-37810.56854850871,-36066.93131529466,-41939.22632208184,-31090.561281509556,-42444.2192845606
14370.562359161659,6113.44797771549,-30837.24896159756,-37915.37587825965,-36014.650585013704,-42041.597311687154,-31128.87217150595,-42511.49803537107
14288.598512244049,6084.770689579331,-30842.255752355548,-37912.35839275818,-36220.73366889163,-42060.976274129906,-31235.84762046905,-42565.85747788638
14119.060530550543,6122.656896431076,-30744.332759896846,-37813.273109587804,-36296.461379106215,-41944.25546458429,-31201.291823541145,-42494.93539272969
14137.23249879271,6108.217669512948,-30734.073309191863,-37806.67934497349,-36100.794208144456,-41936.745278447306,-31090.58363325401,-42433.9151303667
14250.86876760349,6024.4433312944575,-30852.805775738452,-37950.46811705448,-36018.360974593284,-42071.883925424096,-31127.35225288299,-42515.11901797283
14213.004912496199,5991.09452856714,-30860.360665364347,-37934.151343602105,-36187.340162675406,-42054.56132347123,-31222.235408095767,-42563.264675529565
14056.92268096479,6040.357773346636,-30760.984809516052,-37850.08643270569,-36310.431219390775,-41927.4469527539,-31214.12172485849,-42506.9829829911
14055.425114086285,6054.282910142292,-30724.976149198552,-37810.45678978643,-36146.8835052113,-41928.989223121316,-31106.855703217472,-42442.09586883734
14176.079830656032,5962.5737026421675,-30830.18581034968,-37897.941517584506,-36005.776942464945,-42033.50598019433,-31101.804208970574,-42488.118110670825
14171.073039898043,5926.989725469319,-30874.039932970994,-37950.26695135438,-36153.74549075907,-42080.66816099503,-31205.717468943298,-42575.87105940236
14021.852793914413,5979.762194128299,-30781.391952203747,-37842.509191335346,-36308.75483855663,-41955.43133681194,-31221.65426273993,-42543.88571308681
14000.90920935979,6017.626049235589,-30705.239558844514,-37770.58127767817,-36167.22359266563,-41896.02040004974,-31107.526255551133,-42450.47777300808
14126.816585876535,5953.856522304598,-30802.737868158565,-37905.36229674367,-36003.385305808224,-42013.702334606925,-31084.839234928997,-42490.152119416256
14151.738780944203,5890.757547707266,-30884.478197631623,-37979.27951565737,-36121.84955142135,-42093.3863035901,-31196.150922316425,-42584.81175718448
14018.187107823744,5932.6000133276,-30806.872940882797,-37884.530470911326,-36304.75387629913,-41996.156215209514,-31236.026434424693,-42559.37547199434
13959.33496467292,5983.025548818773,-30719.65643401819,-37798.78917918076,-36219.30315724649,-41909.43144672292,-31135.331825653535,-42467.21922960511
14081.956634754735,5938.769094797265,-30786.309335983915,-37898.32149724025,-36020.88672171673,-41975.950238221914,-31083.609888983952,-42475.22115412011
14158.667821725348,5876.295969044682,-30879.78433129601,-37990.83536754076,-36081.348190468336,-42083.30566684075,-31178.202471518813,-42570.23841979962
14044.852738958925,5913.26575437376,-30830.118755116317,-37935.11246861368,-36293.04156220455,-42031.44961970444,-31249.772757264705,-42577.301571047494
13953.434104136719,5976.141211526538,-30732.955721969098,-37830.79687724076,-36258.93280016575,-41929.90564464398,-31167.92066906937,-42487.067578681424
14055.045134430544,5948.626214102056,-30784.431789449667,-37914.12418057015,-36053.36380641029,-42007.287383948256,-31094.763409467152,-42480.85379372285
14157.594937991493,5887.762413950255,-30894.44707565869,-38004.17935898058,-36066.08194900536,-42104.56217581775,-31168.74768361422,-42569.47846048814
14096.529972139595,5933.181158683438,-30845.049720412462,-37915.17471255955,-36265.906544435806,-42025.01231730131,-31239.155678648436,-42573.837050656926
13998.919904103268,6018.318953313703,-30727.188971899628,-37770.067187555695,-36274.914297451294,-41907.21862402184,-31166.31134346859,-42476.562258787424
14074.781724784581,6004.147947329038,-30758.41435890369,-37842.375080868616,-36082.733998624564,-41951.765650721274,-31085.53213900711,-42454.769307943505
14206.277037415151,5941.630118087544,-30867.088540445395,-37985.403893638126,-36034.923617234665,-42076.913067926536,-31134.124831452948,-42530.541721646994
14169.463714297262,5964.384193943048,-30852.82812748291,-37940.76745996087,-36222.767677637064,-42056.37181477211,-31224.13530637447,-42565.70101567519
14053.905195463323,6050.751334518353,-30736.375538870758,-37801.96312689342,-36291.05225694803,-41920.62967069503,-31180.83997736454,-42483.80422399095
14100.463879163728,6067.4704393709235,-30729.26768413397,-37833.45673483095,-36099.60956568832,-41927.223435309344,-31077.329048792013,-42430.45060997613
14239.089398275542,6007.1877845749605,-30848.156612891747,-37970.07059694178,-36008.3473930773,-42053.84606764866,-31115.125848665935,-42512.48151212711
14226.19244172483,5993.083833823662,-30872.564717836944,-37935.693613969524,-36190.00002026559,-42069.55934400074,-31223.12947787398,-42572.42889075624
14111.393882202374,6079.540381376789,-30759.46489089309,-37822.660842259036,-36306.63142283338,-41941.61795873856,-31207.32679454408,-42501.4844538551
14118.367626472429,6114.2526405158815,-30724.104431164797,-37782.53946096176,-36143.530743543,-41900.893080341,-31099.457275802768,-42431.29997626543
14271.365317269006,6072.857209784653,-30816.171266576206,-37911.03963983532,-35994.578718492834,-42010.05900026071,-31088.90725241986,-42477.12105239881
14298.790907715667,6053.433543852991,-30860.651238042265,-37944.03081465135,-36135.64057775028,-42060.976274129906,-31191.479407725266,-42551.105326545876
14169.351955574984,6114.565564938255,-30766.885670052252,-37836.138944165585,-36300.149416941334,-41966.04841542822,-31213.853503925027,-42518.941166274686
14144.586222718504,6161.906559694596,-30701.30565182038,-37783.634696440065,-36173.99617123559,-41914.214720036354,-31108.196807884793,-42437.87138913529
14276.573273727094,6109.692884646998,-30788.52215868499,-37885.22337498944,-35997.57385224984,-42003.778160068774,-31074.222156312724,-42464.760537715025
14326.30590514015,6062.977738735407,-30867.222650912125,-37957.10658515771,-36104.14696981275,-42074.2308585919,-31180.2588320087,-42554.23457076962
14220.492746888727,6128.423646500546,-30774.194690489137,-37845.05729020325,-36282.93857371075,-41978.43128185646,-31212.020660879694,-42516.79539880698
14161.394734548896,6190.516792597389,-30687.000535368985,-37775.43160622497,-36199.52186340355,-41898.32262972863,-31108.465028818257,-42411.563385911395
14279.724869695292,6152.831751445741,-30758.6602280927,-37851.98633098439,-36008.86148319978,-41987.908421505505,-31060.922868361817,-42432.68578442166
14364.661498625459,6098.293494974791,-30851.375264093313,-37952.43507056655,-36060.091681491336,-42057.64586420606,-31150.82158456106,-42524.193826221686
14262.938709609356,6136.447922760001,-30797.52991170048,-37862.15637471156,-36264.83366070195,-42011.042477016745,-31220.022585394694,-42525.13259948881
14177.197417878799,6210.231031206969,-30694.73423895052,-37762.37818746307,-36239.352672022906,-41891.75121685877,-31138.63988383292,-42431.478790221074
14272.72877368078,6186.202905917515,-30737.582533071345,-37833.43438308649,-36032.621387555766,-41963.07563341566,-31065.39321725288,-42426.22613027407
14380.061850555165,6120.041742329806,-30842.658083755745,-37942.5555995173,-36031.12382067726,-42052.66142519253,-31136.27059892066,-42516.907157529255
14311.620809033015,6148.607271743688,-30810.158647317727,-37886.810348845764,-36236.759869666086,-42034.93649183947,-31221.162524361913,-42540.37648920733
14212.66963632937,6235.242633252458,-30687.827549913833,-37759.38305370606,-36254.66361697479,-41900.42369370743,-31152.92264853986,-42444.08517409387
14277.601453972036,6226.816025592808,-30701.730334965032,-37789.89318488755,-36048.42407088567,-41926.93286263142,-31054.41851072532,-42401.72861835106
14394.478725728837,6142.281728062836,-30825.20137133615,-37934.3525093022,-36008.19093086612,-42055.0754135937,-31111.504866064177,-42492.14142467278
14347.048323994677,6144.494550763911,-30827.28008357049,-37927.69168945452,-36211.32358447595,-42047.14054431207,-31218.32385281609,-42546.36675672135
14212.088490973532,6210.163975973604,-30722.495105564012,-37811.35085956465,-36294.65088780533,-41939.27102557076,-31191.233538536257,-42484.25125888005
14253.886253104956,6228.335944215768,-30700.545692508902,-37797.33631579117,-36100.10130406634,-41939.98628139333,-31080.704162204765,-42425.600281429324
14397.719728674858,6163.627644017654,-30799.94390010165,-37889.42550294704,-35986.21916606655,-42026.08520103517,-31086.605022740965,-42465.520497026504
14385.113344802065,6146.372097298157,-30831.57161850591,-37920.04739285081,-36161.56860131843,-42057.93643688398,-31195.480369982764,-42531.05581176947
14247.650116401926,6210.096920740238,-30731.167582412672,-37801.80666468223,-36296.528434339576,-41952.123278632556,-31200.956547374317,-42484.27361062451
14241.905718076912,6233.8791768406845,-30695.225977328537,-37776.39273123655,-36142.86019120934,-41919.735600916814,-31099.47962754722,-42415.139665024246
14382.967577334355,6175.541123812333,-30792.00903082002,-37893.672334393545,-35995.495140015504,-42036.74698314035,-31090.20365359827,-42461.54188651346
14409.163821835975,6144.695716464009,-30843.708615745145,-37946.400099563616,-36134.81356320543,-42080.332884828196,-31200.37540201848,-42542.25403574158
14279.747221439746,6210.141624229148,-30748.17725994316,-37825.74538299387,-36298.02600121808,-41969.22236314087,-31222.458925540323,-42504.032552723
14237.144796507931,6243.423371723101,-30690.04037261491,-37773.44230096845,-36189.17300572074,-41924.787095163716,-31128.425136616843,-42435.83738038986
14370.60706265057,6195.635342077654,-30766.23746946305,-37882.429406932526,-36004.83816919782,-42009.63431711606,-31088.460217530755,-42460.96074115762
14421.054949886198,6144.2486815749035,-30847.66487451373,-37945.9083611856,-36105.08574307987,-42090.05589366626,-31194.474541482276,-42554.56984693645
14306.54696304166,6196.574115344777,-30767.936202041652,-37861.17289795553,-36291.94632672624,-42011.198939227936,-31245.682388029385,-42540.44354444069
14246.711343134803,6258.734316674986,-30681.703171933077,-37777.6667806705,-36220.93483459173,-41921.88136838453,-31149.905163038395,-42445.336871783365
14357.620699122037,6220.892813312151,-30740.063576705885,-37849.81821177223,-36022.205474639595,-41990.59063084014,-31085.330973307013,-42445.58274097237
14431.694380246923,6150.887149678129,-30832.041005139472,-37919.77917191734,-36062.23744895905,-42059.25518980684,-31161.997456788715,-42522.89742504328
14332.899669754466,6185.375891372668,-30779.80497834742,-37846.64426405958,-36270.04161716004,-42000.64891584503,-31233.03130066768,-42525.19965472218
14242.308049477107,6256.588549207277,-30684.564195223356,-37750.844687324134,-36256.71997746467,-41914.75116190328,-31163.875003322963,-42442.54290372645
14337.682943067903,6239.355354232234,-30720.058765418384,-37805.42764728399,-36050.860411031295,-41965.623732283566,-31084.123979106425,-42427.34371749684
14445.23953738684,6171.450754577012,-30822.653272468244,-37922.5507882298,-36033.49310558952,-42071.54864925726,-31142.126755967947,-42505.95480274616
14364.527388158725,6186.739347784442,-30805.844760637854,-37886.899755823586,-36247.22048607117,-42032.164875527014,-31233.61244602352,-42540.8905793298
14249.393552469439,6258.28728178588,-30693.616651727756,-37756.6114373936,-36283.29620162203,-41932.476095256345,-31178.381285474457,-42464.022930148
14311.240829377275,6253.928691617095,-30701.819741942854,-37783.52293771779,-36077.12371076628,-41941.573255249656,-31077.932545892305,-42414.64792664623
14428.520432534271,6174.870571478674,-30820.060470111428,-37918.773343416855,-36020.529093805446,-42056.17064907201,-31127.307549394078,-42494.10837818484
14389.091955315109,6179.162106414093,-30820.52985674499,-37911.10669506868,-36213.69286938821,-42058.40582351754,-31225.45405929733,-42543.52808517553
14254.57915718307,6245.14445604616,-30714.873160704752,-37790.85430989913,-36303.792751287554,-41945.77538320725,-31197.536730472653,-42475.89170645377
14283.703480208336,6256.320328273813,-30697.327041307337,-37775.14103354705,-36121.24605432106,-41946.15536286299,-31093.645822244387,-42423.83449361736
14414.058853871687,6182.023129704372,-30807.297624027447,-37895.30401173878,-36007.2968610879,-42041.88788436507,-31105.44754331679,-42478.90919195524
14401.51952523226,6160.945434683017,-30844.602685523354,-37922.46138125198,-36181.372246905834,-42079.505870283356,-31217.89916967144,-42548.937207333714
14266.671450933392,6233.253327995936,-30739.37067262777,-37792.24011805536,-36314.007498503626,-41959.70052000291,-31216.245140581745,-42492.34259037287
14257.730753151269,6259.628386453198,-30695.40479128418,-37765.75330087582,-36164.317865886434,-41920.182635805926,-31111.191941641802,-42418.60418541481
14390.477763471337,6191.9696559869835,-30796.255862266527,-37888.285563979814,-36017.578663537344,-42039.38448898608,-31102.363002581955,-42468.56033427243
14413.94709514941,6154.128152624149,-30855.30917111745,-37934.97835814695,-36151.97970294711,-42092.76045474535,-31210.165466089904,-42553.966349836155
14293.694709979858,6223.597374391244,-30750.881821022253,-37812.31198457623,-36307.90547226733,-41987.32727614966,-31226.616350009008,-42510.626317337315
14249.52766293617,6266.065688856326,-30685.279451045928,-37753.25867572531,-36197.197281980196,-41918.5956619496,-31125.050023204094,-42426.40494422972
14363.208635235864,6202.363217158701,-30776.27340272348,-37868.75013932588,-36023.99361419602,-42020.340802710154,-31092.550586766076,-42460.53605801297
14434.063665159187,6164.6781760070535,-30840.221743610116,-37927.04348886532,-36097.083818564875,-42083.32801858521,-31176.034352306648,-42533.7380211041
14321.41087310444,6214.835490564763,-30762.258858950005,-37825.365403338124,-36285.24080338965,-42000.35834316711,-31220.380213305976,-42513.26382318304
14243.358581466508,6264.657528955642,-30675.511738718957,-37724.17905618895,-36229.29438701802,-41915.35465900358,-31138.88575302193,-42435.92678736768
14351.809245563656,6223.820891835796,-30733.84979174731,-37814.77067646631,-36028.978053209554,-41987.19316568293,-31075.898537146873,-42439.167790313695
14435.941211693433,6159.850199204708,-30835.684339485688,-37924.02600336385,-36070.61935312979,-42100.06947518224,-31167.138358013435,-42534.05094552648
14343.203823948363,6197.356426400713,-30783.76123711601,-37850.35465363916,-36275.830718973964,-42016.89863406404,-31239.401547837446,-42538.56599790645
14246.15254952342,6267.04916561236,-30681.054971343874,-37740.54053313023,-36265.28069559106,-41921.59079570661,-31165.97606730176,-42450.142496841254
14325.255373150752,6240.070610054804,-30723.12095440876,-37799.16915883651,-36066.037245516454,-41962.98622643784,-31091.477703032222,-42433.244578033045
14435.628287271058,6170.847257476718,-30831.504563272545,-37910.50319796839,-36052.00034999852,-42080.35523657266,-31153.32497994006,-42511.31922141543
14378.720745887846,6196.819984533785,-30799.854493123832,-37855.62966533061,-36245.78997442603,-42032.99189007186,-31233.70185300134,-42530.94405304719
14254.780322883169,6261.975319621006,-30691.806160426877,-37735.04200399423,-36290.94049822575,-41924.094191085605,-31184.59507043303,-42453.24938932054
14305.295265352162,6251.648813682654,-30703.496122777004,-37769.731911388866,-36098.84960637684,-41947.63057799704,-31094.428133300324,-42419.00651681501
14443.160825152496,6188.996873974428,-30810.270406040003,-37910.27968052384,-36023.9042072182,-42060.261018307334,-31129.654482561888,-42492.20847990614
14400.223124053851,6180.905542481607,-30822.988548635072,-37902.43421822003,-36221.13600029183,-42071.01220739033,-31240.250914126747,-42554.74866089209
14269.10779107902,6251.179427049092,-30707.45238154559,-37757.68432112745,-36313.24753919215,-41949.172848364455,-31213.629986480475,-42486.84406123687
14281.378898784984,6254.24161603947,-30690.97914588203,-37752.6104751361,-36138.948635929664,-41937.19231333641,-31110.29787186359,-42428.2154355306
14424.47476678786,6196.752929300419,-30786.957536573118,-37867.63255210311,-36008.928538433145,-42045.68768092247,-31107.86153171796,-42469.63321800628
14421.658446986492,6174.512943567389,-30821.6250922233,-37900.936651341515,-36167.894144999285,-42067.972370144416,-31210.433687023367,-42530.65348036927
14289.716099466814,6241.724639144497,-30721.154000896695,-37781.757149905825,-36307.436085633766,-41962.2039153819,-31214.74757370324,-42480.4738140671
14268.705459678826,6265.618653967221,-30679.11036957626,-37732.31509117068,-36168.27412465503,-41916.78517064872,-31112.331880609025,-42410.646964388725
14397.071528085653,6199.792766546341,-30782.978926060074,-37866.06792999124,-36018.919768204665,-42036.83639011817,-31102.363002581955,-42461.85481093584
14427.581659267147,6159.224350359959,-30843.127470389307,-37920.76264867338,-36150.45978432414,-42089.31828609923,-31208.89141665595,-42544.265692742556
14300.35552982754,6218.076493510783,-30747.283190164948,-37807.43930428497,-36316.75676307163,-41990.50122386232,-31233.679501256884,-42510.38044814831
14253.036886815655,6262.981148121495,-30673.34361950679,-37736.8077918062,-36212.50822693208,-41927.089324842615,-31134.571866342056,-42426.33788899635
14384.241626768307,6222.457435424022,-30742.634027318243,-37826.39358358307,-36018.8527129713,-41998.614907099596,-31081.173548838324,-42436.82085714589
14448.972278710877,6172.613045288688,-30824.262598069025,-37894.298183238294,-36093.59694642985,-42080.71286448394,-31172.994515060727,-42522.24922445408
14326.887050495989,6211.035694007361,-30765.544565384935,-37821.029164913794,-36300.35058264143,-42009.47785490488,-31236.227600124792,-42520.75165757557
14255.853206617023,6277.934465162095,-30666.30282000337,-37732.58331210414,-36243.59950346941,-41913.56651944715,-31142.305569923592,-42425.42146747369
14367.880149827022,6249.815970637318,-30715.32019559386,-37786.87569938609,-36033.448402100614,-41970.407005597,-31069.461234743743,-42415.09496153533
14462.875063762078,6188.281618151858,-30813.444353752657,-37879.43427317551,-36060.762233825,-42067.190059088476,-31151.425081661357,-42508.99463999208
14362.448675924383,6207.213545705503,-30779.00031554703,-37836.697737776965,-36277.82002423049,-42028.74505862535,-31239.46860307081,-42536.82256183893
14259.58594794106,6274.537000004888,-30675.891718374696,-37741.30049244172,-36278.57998354197,-41924.18359806342,-31169.820567348073,-42448.80139217393
14341.773312303223,6258.734316674986,-30705.060744888873,-37779.454920226926,-36070.06055951841,-41951.430374554446,-31081.039438371594,-42415.94432782463
14459.075267204675,6192.707263554009,-30811.90208338524,-37897.4944826954,-36042.836134771846,-42069.648750978566,-31135.01890123116,-42490.755616516544
14380.195961021896,6186.694644295531,-30813.15378107474,-37865.01739800184,-36261.32443682247,-42070.6322277346,-31246.218829896312,-42546.076184043435
14260.770590397191,6263.472886499511,-30694.68953546161,-37733.25386443781,-36311.906434524826,-41939.338080804126,-31196.195625805336,-42462.16773535821
14320.047416692665,6274.447593027066,-30681.658468444166,-37750.33059720166,-36102.22471978959,-41943.27198782826,-31083.028743628114,-42404.03084802996
14447.407656599005,6205.313647426802,-30798.938071601162,-37876.059159762764,-36026.49700957501,-42057.690567694975,-31121.294930135602,-42481.613753034326
14419.42327254096,6198.27284792338,-30810.695089184654,-37858.11070896515,-36216.7997618675,-42060.59629447416,-31224.537637774665,-42537.87309382833
14293.91822742441,6272.324177303813,-30694.778942439432,-37740.67464359697,-36312.68874558077,-41939.29337731521,-31198.94489037334,-42468.35916857233
14305.049396163155,6283.254180342457,-30670.6390584277,-37731.01868999228,-36139.75329873005,-41924.362412019065,-31095.948051923282,-42406.75776085351
14429.9062406905,6201.804423547319,-30784.94587957214,-37858.378929898616,-36023.32306186236,-42050.29214028027,-31108.91206370736,-42473.16479363022
14417.389263795527,6161.146600383116,-30836.779574964,-37906.88221536663,-36190.80468306597,-42086.92664944252,-31228.382137820976,-42555.75448939258
14288.77732619969,6232.694534384553,-30727.099564921806,-37774.38107423557,-36330.39132718937,-41977.1572324225,-31232.56191403412,-42507.31825915793
14275.478038248782,6274.469944771522,-30660.40195946717,-37707.97404145885,-36178.01948523754,-41918.32744101613,-31112.667156775853,-42417.68776389215
14403.307664788685,6215.103711498226,-30756.13448096925,-37828.00290918385,-36012.12483789025,-42020.18434049897,-31090.02483964263,-42451.14832534175
14437.684647760947,6175.071737178771,-30824.106135857837,-37892.59945065969,-36136.48994403958,-42088.08894015419,-31198.14022757295,-42541.53877991901
14305.921114196912,6225.474920925489,-30744.757443041497,-37797.98451638038,-36322.36705092991,-41997.296154176736,-31237.27813211419,-42518.60589010786
14260.927052608378,6286.584590266299,-30657.675046643624,-37708.823407748154,-36218.61025316838,-41900.75896987426,-31126.21231391577,-42416.27960399146
14378.9442633324,6239.489464698967,-30737.44842260461,-37812.04376364276,-36028.12868692025,-41985.539136593245,-31078.29017380359,-42432.529322210474
14449.039333944242,6187.834583262752,-30824.396708535758,-37899.819064118754,-36098.44727497664,-42079.41646330553,-31173.59801216102,-42525.91491054474
14327.02116096272,6213.6284963641765,-30776.69808586813,-37826.840618472175,-36313.33694616997,-42028.14156152506,-31250.80093750965,-42538.38718395081
14253.10394204902,6282.941255920084,-30670.817872383344,-37718.345250886116,-36261.39149205584,-41911.510158957266,-31152.87794505095,-42437.40200250173
14355.631393865515,6247.223168280503,-30722.4504020751,-37787.43449299747,-36055.84485004483,-41974.34091262113,-31082.87228141693,-42429.02009833099
14457.264775903795,6186.962865228995,-30817.780592176987,-37885.89392732309,-36070.73111185207,-42076.86836443763,-31160.16461374338,-42518.89646278578
14371.74700161779,6212.175632974581,-30775.04405677844,-37829.835752229184,-36274.46726256219,-42033.55068368324,-31238.261608870223,-42535.45910542716
14259.92122410789,6275.453421527555,-30670.907279361163,-37715.126599684554,-36288.70532378022,-41921.12140907305,-31177.151939529413,-42450.34366254135
14340.946297758377,6265.328081289302,-30688.274584802937,-37764.479251441866,-36077.70485612212,-41959.29818860271,-31084.77217969563,-42423.83449361736
14461.086924205652,6195.4341763775565,-30790.444408708147,-37856.18845894199,-36034.61069281229,-42066.51950675482,-31129.319206395056,-42491.24735489456
14399.28435078673,6202.072644480782,-30780.453178936623,-37832.76383075283,-36239.01739585607,-42029.572073170195,-31227.868047698506,-42527.34542218989
14273.935767881367,6274.022909882416,-30671.421369483636,-37722.83795152163,-36301.6693355643,-41918.550958460684,-31186.003230333714,-42459.39611904575
14311.173774143908,6267.116220845726,-30676.69638117509,-37742.61924536458,-36110.29369953796,-41933.72779294584,-31087.72260996373,-42419.90058659323
14430.66620000198,6182.894847738129,-30799.608623934822,-37866.96199976945,-36034.47658234556,-42064.954884642946,-31128.358081383478,-42503.65257306726
14415.154089349997,6185.6888157950425,-30804.66011818172,-37862.89398227858,-36210.742439120106,-42056.50592523884,-31224.64939649694,-42553.273445758045
14291.370128556506,6267.026813867905,-30684.07245684534,-37732.02451849276,-36307.145512955845,-41937.214665080865,-31194.74276241574,-42476.00346517604
14297.516858281715,6282.628331497709,-30657.585639665802,-37736.53957087274,-36139.59683651887,-41924.16124631897,-31089.175473353327,-42414.37970571277
14434.264830859285,6214.0978829977375,-30760.426015904668,-37867.5878486142,-36006.8498261988,-42033.774201127795,-31086.7391332077,-42473.20949711913
14442.892604219032,6186.538182084344,-30801.95555710263,-37869.77831957082,-36157.36647336084,-42071.97333240191,-31189.378343746466,-42542.23168399712
14301.964855428321,6244.786828134875,-30711.475695547546,-37766.60266716512,-36316.734411327176,-41969.22236314087,-31207.572663733088,-42505.82069227943
14283.748183697247,6288.573895522821,-30648.68964537259,-37718.88169275304,-36180.56758410545,-41902.01066756376,-31093.53406352211,-42420.504083693515
14415.601124239103,6234.125046029693,-30742.723434296066,-37836.45186858796,-36012.92950069064,-42008.33791593766,-31066.041417842083,-42459.30671206793
14450.425142100472,6181.419632604079,-30821.75920269003,-37899.84141586321,-36129.44914453616,-42085.87611745312,-31175.520262184178,-42554.50279170308
14320.203878903852,6228.045371537849,-30741.404681373202,-37797.20220532444,-36314.1192572259,-41980.9570289799,-31215.239312081256,-42530.3852594358
14274.002823114733,6290.742014734986,-30647.661465127643,-37716.26653865177,-36210.85419784239,-41884.173975488426,-31100.53015953662,-42427.88015936377
14397.987949608321,6246.552615946844,-30720.952835196596,-37794.20707156743,-36015.43289606964,-41973.849174243114,-31046.05895829904,-42443.12404908229
14469.692345820946,6187.476955351467,-30812.930263630184,-37886.07274127874,-36084.90211783673,-42064.44079452047,-31139.73511931123,-42542.05287004148
14357.866568311045,6224.178519747081,-30753.56403035689,-37808.57924325219,-36286.537204568056,-41983.303962147715,-31201.40358226342,-42536.84491358339
14260.837645630556,6278.202686095558,-30663.173575779627,-37718.36760263057,-36248.02514887156,-41891.05831278066,-31126.324072638046,-42452.89176140926
14367.053135282176,6262.042374854372,-30699.27164307495,-37776.10215855863,-36033.96249222309,-41948.68110998644,-31046.37188272141,-42448.10848809582
14475.794372057246,6206.61004860521,-30796.09940005534,-37874.36042718416,-36036.48823934654,-42031.2708057488,-31110.5437410526,-42527.56893963444
14384.755716890779,6219.574060389288,-30769.27730670897,-37833.546141808765,-36252.78607044054,-41995.820939042685,-31199.660146195907,-42553.38520448032
14270.091267835054,6283.880029187207,-30662.815947868345,-37721.8544747656,-36269.08049214846,-41885.31391445565,-31138.01403498817,-42468.89561043926
14337.370018645528,6267.093869101271,-30688.58750922531,-37776.169213791996,-36062.0139315145,-41921.501388728786,-31052.09392930197,-42446.43210726167
14457.912976492998,6197.758757800908,-30803.5201792145,-37914.05712533678,-36022.71956476207,-42040.74794539785,-31109.202636385282,-42539.10243977338
14394.769298406756,6195.9035630111175,-30803.5201792145,-37883.83756683321,-36232.37892775285,-42034.37769822809,-31215.4181260369,-42590.533803765036
14278.20495107233,6273.419412782123,-30680.7420469215,-37759.315998472695,-36294.74029478315,-41913.27594676924,-31171.206375504302,-42508.100570213865
14314.25831487874,6272.5029912594555,-30675.77995965242,-37761.52882117377,-36104.705763424136,-41896.31097272765,-31070.24354579968,-42450.83540091937
14455.029601458265,6210.5216038848885,-30778.75444635802,-37883.479938921926,-36004.01115465297,-42019.022049787294,-31090.58363325401,-42518.114151729846
14409.297932302707,6173.395356344624,-30822.452106768145,-37919.041564350315,-36200.751209348586,-42045.82179138921,-31217.385079548967,-42600.167405625274
14285.40221278694,6256.432086996089,-30697.751724451988,-37784.34995226264,-36308.978356001186,-41920.13793231701,-31197.02264035018,-42532.933358303715
14298.857962949034,6288.797412967374,-30653.361159963748,-37745.23439946585,-36134.99237716107,-41879.99419927528,-31080.614755226943,-42453.718775954105
14430.845013957622,6218.99291503345,-30755.79920480242,-37862.37989215612,-35996.23274758253,-41988.891898261536,-31077.932545892305,-42499.919831743224
14448.458188588404,6191.187344931048,-30799.56392044591,-37906.92691885554,-36140.51325804154,-42039.18332328598,-31185.287974511146,-42573.054739600986
14321.45557659335,6258.0637643413265,-30695.74006745101,-37782.42770223948,-36293.242727904646,-41924.18359806342,-31199.391925262444,-42526.31724194494
14292.443012290361,6300.755596250963,-30628.5283718739,-37704.17424490145,-36159.579296061915,-41852.836829762084,-31088.616679741943,-42436.664394934705
14419.915010918978,6243.266909511914,-30721.55633229689,-37827.19824638346,-35985.995648621996,-41959.76757523627,-31061.4816619732,-42471.466061051615
14464.394982385038,6192.886077509651,-30798.491036712057,-37895.92986058353,-36095.38508598627,-42032.723669138395,-31166.780730102153,-42562.54941970699
14342.17564370342,6244.049220567849,-30719.03058517344,-37799.16915883651,-36280.99397194314,-41942.42262153896,-31205.98568987676,-42532.62043388134
14272.639366702959,6288.126860633714,-30645.269828470926,-37719.395782875516,-36209.60250015289,-41870.94174277088,-31117.696299278297,-42445.470982250095
14389.404879737483,6245.323270001802,-30711.83332345883,-37805.85233042864,-36013.37653557975,-41936.16413309147,-31063.71683641873,-42451.08127010838
14465.780790541266,6181.598446559721,-30808.23639729457,-37907.55276770029,-36069.14413799574,-42039.09391630816,-31157.21418347528,-42546.16559102125
14357.21836772184,6215.304877198324,-30754.793376301932,-37835.44604008747,-36276.948306196726,-41984.756825537304,-31227.89039944296,-42553.7428323916
14273.376974269984,6286.495183288477,-30647.795575594377,-37727.88944576853,-36243.89007614733,-41862.068100222124,-31143.177287957347,-42454.81401143241
14367.433114937916,6255.538017217877,-30691.873215660242,-37783.74645516234,-36037.31525389138,-41917.43337123792,-31067.315467276036,-42444.286339793965
14466.049011474732,6180.905542481607,-30799.206292534625,-37895.54988092779,-36043.84196327233,-42038.17749478549,-31141.366796656468,-42543.550436919984
14384.643958168503,6198.541068856844,-30772.51830965499,-37859.31770316574,-36257.14466060932,-42004.202843213425,-31229.432669810376,-42573.121794834355
14266.358526511018,6264.724584189008,-30663.64296241319,-37738.953559273905,-36282.960925455205,-41885.89505981148,-31171.65341039341,-42481.747863501056
14337.101797712065,6258.868427141718,-30674.39415149619,-37777.689132414955,-36077.25782123301,-41916.71811541535,-31075.898537146873,-42444.68867119416
14470.273491176784,6199.904525268617,-30773.121806755284,-37886.92210756804,-36013.13066639074,-42018.17268349799,-31109.15793289637,-42511.676849326715
14405.56519097867,6186.046443706327,-30783.649478393734,-37876.08151150722,-36219.52667469104,-42011.534215394764,-31216.088678370557,-42565.0975185749
14281.468305762804,6263.4281830106,-30667.59922118178,-37750.19648673493,-36294.293259894046,-41894.656943637965,-31178.135416285448,-42489.0792356824
14321.45557659335,6277.733299461997,-30651.64007564069,-37744.765012832286,-36102.805865145434,-41894.12050177104,-31069.371827765925,-42433.088115821854
14449.016982199786,6204.687798582054,-30768.606754375312,-37877.534374896815,-36005.151093620196,-42020.25139573233,-31096.708011234765,-42508.05586672496
14415.914048661478,6171.584865043744,-30812.840856652365,-37917.81221840528,-36196.772598835545,-42045.68768092247,-31221.36369006201,-42593.37247531086
14285.0222331312,6245.256214768436,-30700.769209953454,-37778.449091726434,-36316.577949115985,-41919.62384219454,-31205.203378820825,-42522.785666321004
14292.174791356898,6279.7226047185195,-30648.957866306053,-37734.59496910512,-36147.419947078226,-41881.00002777577,-31087.11911286344,-42443.03464210447
14429.369798823573,6213.762606830908,-30751.865297778288,-37872.05819750526,-35999.92078541765,-41987.4613866164,-31083.498130261676,-42493.32606712891
14438.154034394507,6170.690795265531,-30814.539589230968,-37923.62367196366,-36152.87377272532,-42047.676986178994,-31201.85061715253,-42579.51439374857
14299.059128649133,6224.156168002626,-30724.864390476276,-37810.68030723099,-36318.254329950134,-41958.001787424306,-31230.907884944427,-42548.35606197787
14266.425581744383,6270.468982514022,-30654.6352093977,-37735.91372202799,-36193.688058100706,-41880.530641142206,-31122.904255736383,-42459.507877768025
14397.85383914159,6221.652772623632,-30740.488259850536,-37842.375080868616,-36012.616576268265,-41976.77725276676,-31086.24739482968,-42485.100625169354
14452.727371779369,6179.899713981118,-30815.701879942644,-37909.206796789986,-36111.746562927554,-42059.434003762486,-31186.249099522724,-42570.05960584398
14326.618829562525,6228.045371537849,-30741.918771495675,-37814.70362123294,-36307.99487924515,-41982.655761558504,-31237.211076880823,-42554.391032980806
14259.809465385613,6287.612770511243,-30655.462223942548,-37721.11686719857,-36235.95520686569,-41889.65015287998,-31143.35610191299,-42462.41360454722
14382.31937674515,6251.447647982556,-30711.766268225467,-37805.24883332835,-36026.876989230754,-41934.375993535046,-31073.015162112137,-42460.24548533505
14469.20060744293,6193.646036821132,-30800.01095533502,-37902.94830834249,-36066.037245516454,-42037.194018029455,-31152.050930506102,-42547.08201254392
14359.565300889648,6221.161034245615,-30757.296771680925,-37837.43534534399,-36277.21652713019,-41983.706293547904,-31228.203323865335,-42547.79726836649
14267.945500367345,6284.5952850097765,-30655.86455534274,-37720.06633520917,-36258.12813736536,-41882.02820802072,-31149.659293849385,-42452.26591256451
14349.596422862582,6252.185255549581,-30695.36008779527,-37788.35091452014,-36049.94398950863,-41931.96200513387,-31067.3825225094,-42434.04924083343
14441.462092573893,6168.477972564456,-30802.38024024728,-37904.80350313229,-36043.77490803896,-42023.98413705637,-31137.164668698868,-42526.69722160068
14350.781065318712,6168.142696397626,-30783.738885371553,-37871.90173529407,-36255.24476233063,-42002.593517612644,-31232.316044845113,-42565.65631218628
14223.53258413465,6231.509891928422,-30680.272660287937,-37748.14012624504,-36294.293259894046,-41901.83185360811,-31180.325887242067,-42485.681770525196
14275.410983015418,6208.308781183813,-30690.26389005946,-37782.60651619513,-36091.138254539765,-41931.067935355655,-31082.916984905838,-42447.30382529543
14377.737269131812,6120.77934989683,-30802.20142629164,-37891.21364250346,-36031.39204161073,-42029.34855572564,-31123.820677259053,-42513.37558190532
14302.903628695445,6098.718178119443,-30803.18490304767,-37892.89002333761,-36221.69479390321,-42040.81500063121,-31220.93900691736,-42562.214143540165
14147.827225664525,6139.487760005923,-30695.06951511735,-37765.35096947563,-36309.76066705712,-41903.754103631276,-31191.032372836158,-42492.096721183865
14167.072077640543,6141.991155384917,-30666.101654303275,-37739.378242418556,-36116.14985658525,-41874.316856183636,-31075.3844470244,-42425.01913607349
