Fp1,Fp2,C3,C4,P7,P8,O1,O2
14135.690228425292,5842.410724450437,-29302.958166951918,-36149.073976167914,-37498.538195912624,-40409.69644900518,-29274.61615498259,-39875.19918384543
14174.157580632876,5788.207744146317,-29374.684914908998,-36215.97274732265,-37606.8771012875,-40481.82552836246,-29374.86372886464,-39951.932722560494
14063.516445579105,5852.87134085552,-29290.59765226813,-36115.43460076268,-37814.65891774403,-40397.335934321396,-29419.813086964263,-39932.39729790656
14012.330950776453,5912.3269811066375,-29204.25286343728,-36024.77592525195,-37725.967195745376,-40302.07279945288,-29318.76085028182,-39843.16913404097
14115.528954926605,5854.704183900855,-29278.281841073258,-36122.520103755014,-37512.262167008186,-40382.27085855852,-29264.11083508859,-39849.29351202172
14183.768830748659,5790.487622080758,-29375.62368817612,-36219.57137817996,-37573.05891192662,-40482.29491499602,-29359.821004846217,-39937.247626453354
14080.414364387318,5829.133788243984,-29323.030033472784,-36136.42288880621,-37803.30423156074,-40414.122094407336,-29434.766404004862,-39943.483763156386
13995.321273245963,5893.59621925309,-29225.911703814472,-36040.109221948296,-37777.689132414955,-40318.38957290525,-29356.401187944557,-39862.01165461679
14091.45612614824,5868.204637551861,-29260.22163155337,-36100.973022100094,-37541.56530398909,-40371.6314281978,-29270.525785747268,-39848.26533177678
14177.935025445822,5788.05128193513,-29369.633420662096,-36215.704526389185,-37538.324301043074,-40483.56896442997,-29343.839507560675,-39930.63151009459
14090.629111603394,5807.072616466596,-29345.51588839482,-36162.73089203011,-37774.47048121339,-40449.66136809127,-29437.761537761875,-39960.51579243133
13993.1531540338,5893.082129130617,-29234.964160318872,-36046.814745284886,-37805.651164728544,-40341.59068364986,-29379.959926600448,-39886.97855317337
14058.375544354385,5874.954864377363,-29249.291628514726,-36090.17712952818,-37580.32322887459,-40363.763614149524,-29286.954317921918,-39856.1554975695
14166.066249140054,5794.130956426973,-29360.692722879976,-36214.385773466325,-37515.23494902074,-40480.70794113969,-29326.38279514108,-39922.24960592385
14116.847707849469,5802.736378042267,-29356.3788362001,-36185.32850567443,-37729.588178347134,-40467.945095055715,-29424.037566666317,-39964.56145817774
14003.39025299433,5887.628303483522,-29238.942770831916,-36052.268570931985,-37812.021411898306,-40345.50223892954,-29387.313650526245,-39886.19624211744
14039.555375523018,5885.102556360073,-29227.83395383763,-36059.7117018356,-37610.09575248906,-40345.1222592738,-29282.79689345323,-39841.17982878445
14169.396659063896,5812.705256069334,-29327.545085852755,-36171.76099679006,-37486.870585306955,-40450.28721693602,-29291.782294724264,-39897.774445745286
14146.79904541958,5802.691674553356,-29354.970676299417,-36177.885374770805,-37680.21317484536,-40460.032577518534,-29402.266967566848,-39949.47403067041
14016.734244434148,5874.016091110241,-29254.79015765073,-36062.259800703505,-37826.840618472175,-40350.486677943074,-29402.714002455952,-39900.25548937982
14021.472814258674,5896.591353010101,-29214.087630997616,-36034.81185851239,-37655.60390420007,-40317.94253801615,-29293.011640669305,-39827.925244322454
14159.13720835891,5835.302869713649,-29302.242911129346,-36152.67260702522,-37484.076617250044,-40419.28534737651,-29276.136073605547,-39863.576276728665
14169.79899046409,5801.596439075046,-29353.741330354373,-36185.77554056353,-37630.97228181032,-40463.742967098115,-29384.34086851369,-39931.16795196151
14038.840119700448,5861.476762470814,-29269.810529924696,-36075.20146074313,-37822.571435281214,-40370.51384097503,-29421.243598609402,-39908.07859993918
14015.281381044553,5902.447510057391,-29203.53760761471,-36026.29584387491,-37693.22189011835,-40324.24572995254,-29313.08350719017,-39835.07780254815
14142.194586061787,5844.0647535401295,-29279.08650387365,-36129.56090325843,-37487.2505649627,-40400.621640756326,-29266.03308511175,-39850.63461668904
14194.318854131563,5803.250468164739,-29347.259324462335,-36183.562717862456,-37585.48648184377,-40453.684682093226,-29359.7315978684,-39920.819094278704
14056.363887353407,5834.051172024152,-29298.59957678313,-36126.2751968235,-37818.302252090245,-40400.04049540049,-29432.35241560369,-39931.21265545043
13998.919904103268,5895.607876254067,-29213.618244364054,-36032.04024219993,-37748.38599543405,-40318.65779383872,-29339.838545303173,-39851.79690740072
14118.07705379451,5864.293082272182,-29263.060303099195,-36100.61539418881,-37513.8044373756,-40383.16492833674,-29265.496643244824,-39844.24201777483
14186.316929616563,5794.198011660339,-29357.943458311973,-36206.02622104004,-37562.33007458807,-40479.880926594844,-29355.99885654436,-39934.118382229615
14081.956634754735,5825.959840531331,-29314.022280457295,-36135.77468821701,-37799.5714902367,-40428.20369341418,-29440.82372675225,-39946.99298703587
13994.33779648993,5892.992722152797,-29213.10415424158,-36032.487277089036,-37784.10408307363,-40324.04456425245,-29364.581926415198,-39857.429547003456
14077.195713185754,5851.910215843942,-29257.36060826309,-36103.47641747909,-37561.41365306541,-40383.58961148139,-29286.440227799445,-39850.4558027334
14172.458848054273,5780.80931673161,-29363.62080140362,-36214.56458742197,-37551.131850615966,-40498.09759832592,-29356.3788362001,-39941.2262369664
14096.686434350782,5804.3233518985935,-29341.13494648158,-36171.045740967485,-37783.500585973336,-40463.2512287201,-29452.02195072436,-39969.36708323564
13995.969473835168,5884.744928448788,-29226.55990440368,-36040.22098067057,-37816.71527823392,-40342.08242202788,-29388.967679615937,-39877.143785613036
14062.465913589707,5875.111326588551,-29233.846573096107,-36068.09360600634,-37590.8732522575,-40352.74420413306,-29285.45675104341,-39834.54136068122
14175.610444022472,5799.115395440507,-29342.632513360088,-36190.201185965685,-37521.47108572377,-40471.43196719074,-29330.987254498872,-39919.3215274002
14131.488100467695,5809.330142656582,-29339.972655769907,-36172.02921772352,-37729.722288813864,-40460.21139147418,-29433.201781892993,-39960.56049592025
14007.234753040642,5884.700224959877,-29239.479212698843,-36056.247181445025,-37833.23321738639,-40350.33021573189,-29411.90056942708,-39892.454730564925
14034.861509187402,5888.567076750645,-29227.632788137533,-36057.25300994552,-37631.21815099933,-40343.37882320629,-29303.00287044083,-39836.865942104574
14155.560929246061,5809.620715334501,-29330.13788820957,-36183.272145184535,-37501.622736647456,-40452.365929170366,-29308.009661198816,-39888.07378865168
14130.482271967207,5784.832630733566,-29369.09697879517,-36198.225462225135,-37695.904099452986,-40478.092787038426,-29427.904418457085,-39955.799574351266
13999.456345970197,5851.038497810185,-29271.33044854766,-36076.743731110546,-37848.25358966036,-40366.49052697307,-29431.100717914193,-39907.00571620533
14001.780927393547,5875.692471944389,-29225.73288985883,-36042.344396393826,-37672.7923956862,-40325.65388985323,-29304.679251274974,-39820.05743027418
14120.9827805737,5797.14844192844,-29331.74721381035,-36177.39363639279,-37509.89288209592,-40442.26294067656,-29293.235158113857,-39867.3090180527
14131.0857690675,5762.704403722812,-29389.839397649695,-36215.19043626671,-37658.75550016826,-40491.97322034517,-29404.636252479107,-39951.08335627119
14004.53019196155,5828.396180676959,-29299.627757028076,-36104.415190746215,-37846.9348367375,-40386.24946907157,-29435.995749949903,-39925.46825712541
13968.119200243855,5863.980157849808,-29235.858230097085,-36046.99355924053,-37723.9555387444,-40321.49646538454,-29333.33418766668,-39835.346023481616
14097.893428551368,5811.990000246764,-29308.14377166555,-36149.81158373494,-37516.53135019915,-40403.95205068017,-29285.568509765686,-39851.908666122996
14160.075981626032,5777.7918312301435,-29373.701438152963,-36207.456732685176,-37604.73133381979,-40470.62730439035,-29376.13777829859,-39927.43521063748
14049.88188146137,5838.230948237294,-29300.767695995295,-36110.651327449246,-37811.529673520294,-40381.9802858806,-29423.612883521666,-39905.664611538006
13981.977281806146,5886.421309282936,-29224.83882008062,-36031.48144858854,-37751.24701872433,-40309.62768907877,-29341.67138834851,-39835.56954092617
14092.752527326647,5845.361154718537,-29283.154521364515,-36102.58234770088,-37529.27184453867,-40377.30877128944,-29275.957259649906,-39834.36254672558
14164.792199706102,5776.294264351638,-29381.27867952331,-36207.456732685176,-37573.684760771364,-40476.90814458229,-29361.922068825017,-39917.10870469912
14065.349288624442,5810.939468257364,-29332.32835916619,-36136.93697892869,-37804.08654261667,-40418.97242295414,-29439.594380807208,-39933.71605082942
13988.034604553533,5892.500983774779,-29216.68043335443,-36023.92655896265,-37782.07007432819,-40306.96783148859,-29352.556687898243,-39846.49954396481
14072.300681150042,5862.862570627042,-29250.677436670954,-36084.09745503634,-37550.215429093296,-40352.520686688506,-29262.389750765535,-39813.46366565987
14168.033202652123,5781.681034765367,-29360.692722879976,-36201.91350006026,-37541.14062084444,-40463.20652523119,-29332.283655677278,-39898.22148063439
14090.495001136662,5798.020159962197,-29347.14756574006,-36175.1361102028,-37773.68817015745,-40445.66040583377,-29435.16873540506,-39941.15918173303
13981.709060872683,5870.104535830562,-29249.11281455908,-36068.94297229564,-37830.14867665156,-40342.104773772335,-29394.801484918775,-39876.69675072393
14048.87605296088,5864.203675294361,-29250.36451224858,-36084.90211783673,-37605.848921042554,-40350.79960236545,-29288.876567945073,-39829.825142601156
14158.71252521426,5778.797659730632,-29361.56444091373,-36215.279843244534,-37529.942396872335,-40468.52624041155,-29327.120402708104,-39900.68017252447
14095.546495383562,5768.806429959111,-29367.308839238747,-36187.51897663104,-37743.915646542984,-40469.77793810105,-29435.39225284961,-39953.31853071672
13975.67408986975,5845.629375652001,-29247.54819244721,-36048.781698796956,-37842.26332214634,-40344.80933485143,-29404.658604223565,-39878.73075946936
14007.413566996285,5859.375698492015,-29221.329596201136,-36034.83421025684,-37638.080136547105,-40317.495503127044,-29287.468408044388,-39805.30527893368
14107.057643778044,5758.345813554027,-29337.871591791107,-36173.95146774667,-37519.07944906705,-40455.226952460645,-29311.22831240038,-39875.98149490136
14114.053739792555,5775.579008529068,-29329.75790855383,-36150.75035700206,-37670.02077937374,-40442.777030799036,-29387.87244413763,-39910.53729182926
13960.81017980697,5821.333029429082,-29244.083672056637,-36039.77394578147,-37831.62389178561,-40331.688860856164,-29403.406906534066,-39868.42660527547
13920.621743276328,5800.747072785744,-29227.11869801506,-36043.529038849956,-37694.786512230225,-40328.71607884361,-29319.05142295974,-39826.181808254936
14025.227907327166,5716.7492171227,-29307.875550732086,-36153.25375238106,-37503.96966981526,-40424.96269046816,-29279.80175969622,-39846.656006175996
14003.904343116803,5645.469504054726,-29371.756836385353,-36208.574319907944,-37644.33862499459,-40471.61078114638,-29387.604223204165,-39925.04357398076
13834.813396312404,5662.657995540857,-29304.947472208438,-36106.29273728046,-37852.65688331806,-40382.98611438109,-29436.331026116735,-39919.25447216684
13770.596834492308,5680.226466682729,-29238.763956876275,-36049.809879041895,-37740.361719174594,-40320.0659537394,-29334.205905700437,-39842.14095379603
13883.942530625169,5616.009904862632,-29304.83571348616,-36145.11771739933,-37520.46525722328,-40396.643030243285,-29271.039875869737,-39837.06710780467
13925.784996245504,5556.375450655872,-29379.021153333328,-36224.82403812695,-37603.05495298564,-40473.91301082528,-29361.18446125799,-39919.54504484475
13792.21097138059,5585.477421936682,-29321.867742761107,-36156.1818309047,-37830.86393247413,-40408.62356527133,-29428.73143300193,-39925.80353329224
13709.889496551694,5629.756227702645,-29237.64636965351,-36069.54646939594,-37771.251830011824,-40328.11258174331,-29339.883248792084,-39840.53162819525
13815.568544336385,5583.935151569266,-29291.08939064615,-36137.6298830068,-37542.48172551176,-40394.34080056439,-29269.51995724678,-39836.21774151537
13882.422612002209,5504.273534330551,-29390.442894749987,-36246.28171280405,-37577.17163290639,-40478.986856816635,-29349.04746401876,-39933.29136768477
13779.090497385323,5533.822540500467,-29350.455623919443,-36185.68613358571,-37807.126379862595,-40425.029745701526,-29424.30578759978,-39949.004644036846
13689.057670719347,5600.207221532729,-29249.090462814627,-36063.95853328211,-37796.151673335036,-40309.672392567685,-29344.644170361065,-39854.81439290218
13760.87382565425,5558.521218123582,-29291.26820460179,-36129.158571858236,-37571.76251074821,-40363.71891066062,-29262.859137399097,-39851.059299833694
13855.2205390001,5481.675920686236,-29398.869502409638,-36255.22241058617,-37544.336920301546,-40473.64478989182,-29318.00089097034,-39930.43034439449
13772.876712426749,5487.08504284442,-29392.5886622177,-36220.89013110282,-37782.20418479493,-40446.30860642298,-29421.847095709694,-39961.27575174281
13667.175312897602,5568.95948278421,-29286.440227799445,-36098.93901335466,-37842.88917099109,-40326.436200909164,-29370.907470096052,-39880.340085070144
13722.115900768746,5565.964349027199,-29289.971803423385,-36123.14595259976,-37619.349374693564,-40336.31567195841,-29257.69588442992,-39832.57440716915
13848.157387752222,5494.885801659322,-29398.847150665184,-36249.76858493908,-37529.47301023877,-40448.70024307969,-29289.59182376764,-39902.96005045892
13816.149689692224,5494.483470259127,-29409.19600834799,-36248.986273883136,-37742.3063209422,-40456.59040887242,-29402.53518850031,-39967.62364716812
13698.04307199038,5575.843820076445,-29294.196283125435,-36121.91660665472,-37847.40422337106,-40334.214607979615,-29378.52941495531,-39906.17870166048
13725.200441503579,5585.119794025397,-29272.828015426163,-36114.8758071513,-37650.664168675445,-40322.524645629484,-29270.011695624795,-39845.65017767551
13862.350745481343,5515.359999580383,-29385.659621436553,-36254.41774778578,-37523.03570783564,-40445.30277792249,-29282.394562053036,-39910.78316101828
13876.946434610658,5518.131615892842,-29415.00746190637,-36267.7617392256,-37702.676678022945,-40465.24053397662,-29392.409848262054,-39981.99581885288
13779.425773552153,5618.6027072194465,-29299.89597796154,-36137.763993473534,-37854.40031938557,-40349.74907037605,-29390.19702556098,-39927.70343157094
13783.806715465393,5647.21294012224,-29252.800852394208,-36112.39476351676,-37695.12178839705,-40318.21075894961,-29283.5121492758,-39859.35179702661
13917.380740330309,5581.767032357101,-29348.5780773852,-36234.81526789848,-37521.67225142387,-40426.86258874686,-29270.212861324893,-39909.19618716195
13955.71398207116,5561.069316991487,-29401.439953022,-36276.545974796536,-37652.9887500988,-40480.953810328705,-29376.920089354528,-39991.785882924305
13847.017448785002,5644.463675554237,-29304.969823952895,-36154.77367100402,-37839.87168548962,-40363.428337982696,-29398.2883570538,-39943.7296323454
13816.529669347963,5701.237106470717,-29236.59583766411,-36094.33455399687,-37730.75046905881,-40301.26813665249,-29297.23612037136,-39859.105927837605
13946.303897655476,5648.68815525629,-29325.84635327415,-36207.72495361864,-37531.79759166212,-40403.974402424625,-29262.568564721176,-39889.95133518593
14032.06754113049,5624.034181122087,-29394.220339562937,-36275.13781489585,-37607.23472919878,-40472.86247883588,-29347.974580284907,-39966.08137680071
13934.032789949511,5684.026263240131,-29327.142754452558,-36181.90868877276,-37823.264339359324,-40396.084236631905,-29406.82672343573,-39961.655731398554
13873.034879330979,5753.204912329306,-29234.762994618774,-36092.121731295796,-37768.30139974372,-40309.180654189666,-29318.649091559542,-39876.294419323734
13986.000595808102,5721.845414858511,-29288.27307084478,-36166.351874631866,-37538.72663244327,-40371.542021219975,-29244.97774183485,-39863.37511102857
14079.676756820292,5664.69200428629,-29383.91618536904,-36263.380797312355,-37564.58760077806,-40466.29106596602,-29326.740423052364,-39944.400184679056
13994.091927300922,5705.148661750396,-29341.13494648158,-36196.92906104673,-37797.29161230226,-40415.08321941891,-29408.883083925615,-39959.19703950847
13913.446833306174,5788.677130779878,-29234.56182891868,-36082.15285326873,-37795.14584483455,-40313.651003080726,-29339.011530758326,-39884.31869558319
13998.875200614359,5769.09700263703,-29269.49760550232,-36138.63571150729,-37573.684760771364,-40356.90162860175,-29256.801814651706,-39863.48686975084
14116.490079938183,5713.642324643412,-29372.762664885842,-36249.2544948166,-37542.593484234036,-40461.55249614149,-29309.976614710882,-39927.50226587085
14061.68360253377,5744.957118625298,-29354.680103621497,-36204.819226839456,-37767.362626476606,-40426.61671955785,-29406.089115868705,-39954.123193517116
13955.065781481957,5826.742151587267,-29250.31980875967,-36079.582402656364,-37834.30610112025,-40316.69084032665,-29368.784054372794,-39882.93288742696
14021.651628214317,5828.418532421414,-29246.520012202265,-36098.08964706536,-37612.44268565687,-40335.75687834703,-29263.08265484365,-39843.90674160799
14157.617289735948,5764.604302001513,-29343.124251738103,-36217.33620373443,-37510.40697221839,-40426.25909164656,-29282.931003919963,-39897.26035562281
14117.98764681669,5758.278758320661,-29357.764644356328,-36211.07771528694,-37720.37925963155,-40426.549664324484,-29393.348621529178,-39946.05421376875
14000.082194814944,5839.1920732488725,-29253.4043494945,-36087.69608589364,-37842.978577968905,-40319.06012523891,-29380.63047893411,-39888.744340985344
14022.255125314608,5852.603119922057,-29232.371357962056,-36081.12467302378,-37654.35220651057,-40307.280755910964,-29274.996134638328,-39828.66285188948
14149.213033820753,5777.098927152029,-29337.692777835466,-36212.37411646535,-37516.24077752123,-40428.18134166972,-29282.998059153328,-39883.37992231607
14152.632850722415,5763.3526043120155,-29371.220394518423,-36235.575227209956,-37688.10334063808,-40455.8975047943,-29386.777208659318,-39956.67129238502
14041.768198224092,5855.06181181214,-29260.489852486833,-36096.63678367576,-37840.98927271239,-40324.67041309719,-29385.413752247543,-39899.36141960161
14043.39987556933,5894.646751242489,-29201.034212235718,-36048.60288484131,-37680.83902369011,-40274.848374706315,-29266.278954300757,-39808.03219175723
14162.71348747176,5820.43895965087,-29304.008698941318,-36178.243002682095,-37507.47889369475,-40393.53613776399,-29252.733797160843,-39855.41789000248
14183.254740626186,5775.422546317881,-29376.76362714334,-36245.83467791494,-37647.69138666289,-40465.508754910086,-29374.14847304207,-39955.28548422879
14060.945994966745,5840.443770938369,-29296.766733737797,-36142.6813772537,-37848.61121757165,-40376.83938465588,-29414.493371783898,-39937.962882275926
14027.284267817053,5892.16570760795,-29215.78636357622,-36069.70293160712,-37733.36562316008,-40298.65298255122,-29299.09131516115,-39843.75027939681
14140.294687783085,5825.892785297965,-29296.18558838196,-36174.2867439135,-37524.89090262543,-40394.69842847567,-29252.242058782824,-39863.084538350646
14202.700758302302,5776.786002729655,-29376.16013004305,-36250.93087565075,-37606.92180477641,-40469.73323461214,-29350.634437875087,-39951.172763249015
14094.294797694063,5826.675096353901,-29311.094201933647,-36158.19348790568,-37826.37123183862,-40392.97734415261,-29412.928749672028,-39945.11544050163
14026.434901527751,5887.740062205799,-29217.038061265717,-36064.11499549329,-37774.202260279926,-40299.6141075628,-29325.511077107323,-39857.31778828118
14135.936097614302,5851.127904788006,-29263.730855432852,-36137.00403416205,-37542.19115283384,-40363.83066938289,-29249.671608170465,-39846.27602652026
14217.184688709342,5781.368110342993,-29365.610106660144,-36241.20786681269,-37564.22997286677,-40470.29202822352,-29333.401242900043,-39941.248588710856
14127.733007399203,5817.287363682672,-29324.393489884555,-36168.56469733294,-37794.49764424535,-40408.243585615586,-29420.77421197584,-39961.655731398554
14033.095721375434,5888.589428495101,-29228.616264893564,-36068.22771647307,-37808.28867057427,-40310.87938676827,-29360.29039147978,-39879.64718099203
14105.850649577458,5856.671137412923,-29264.11083508859,-36128.3762608023,-37592.9743162363,-40361.975474593106,-29284.406219054013,-39863.866849406586
14219.57632536606,5791.314636625604,-29363.352580470157,-36238.59271271142,-37552.025920394175,-40466.268714221565,-29335.770527812307,-39922.20490243494
14159.807760692569,5811.00652349073,-29345.247667461357,-36195.5432528905,-37768.92724858847,-40433.56811208345,-29429.35728184668,-39958.21356275243
14051.670021017793,5892.299818074682,-29232.103137028593,-36071.1110915078,-37831.82505748571,-40318.344869416345,-29381.52454871232,-39882.865832193595
14103.302550709554,5890.489326773802,-29226.291683470212,-36084.29862073644,-37612.75561007924,-40325.87740729778,-29272.38098053706,-39823.27608147575
14230.796901082624,5820.260145695227,-29330.003777742837,-36196.97376453564,-37513.53621644214,-40436.16091444027,-29299.001908183327,-39891.35949508661
14194.832944254034,5815.365113659515,-29347.862821562627,-36203.29930821649,-37718.971099730865,-40446.91210352327,-29409.732450214917,-39953.2291237389
14067.11507643641,5888.432966283914,-29239.009826065285,-36077.90602182222,-37841.83863900169,-40336.449782425145,-29393.035697106803,-39892.857061965115
14088.013957502122,5902.156937379473,-29206.97977626083,-36057.923562279175,-37650.75357565327,-40300.239956407546,-29276.94073640594,-39816.21293022787
14220.515098633183,5835.079352269096,-29303.94164370795,-36172.74447354609,-37498.98523080173,-40407.79655072648,-29273.945602648928,-39865.02914011826
14215.128328219454,5813.778139803188,-29354.545993154767,-36213.69286938821,-37674.73699745381,-40452.76826057056,-29392.298089539778,-39945.67423411301
14077.776858541592,5865.365966006037,-29267.5083002458,-36107.61149020332,-37851.42753737301,-40360.72377690361,-29412.884046183117,-39906.491626082854
14068.813809015013,5903.140414135506,-29200.58717734661,-36046.6582830737,-37694.07125640765,-40291.83570049235,-29292.542254035743,-39819.051601773695
14192.486011086228,5835.749904602755,-29294.777428481273,-36161.747415274076,-37508.86470185098,-40393.15615810826,-29267.41889326798,-39853.4062330015
14216.58119160905,5791.225229647784,-29362.95024906996,-36226.343956749915,-37636.135534779496,-40458.803231573496,-29374.595507931175,-39938.99106252087
14066.243358402653,5811.051226979641,-29295.090352903648,-36129.44914453616,-37844.386737869594,-40376.21353581113,-29422.294130598802,-39926.16116120353
14004.552543706006,5850.703221643355,-29217.395689177003,-36054.61550409979,-37742.93216978695,-40304.576194831876,-29318.716146792907,-39837.93882583843
14122.189774774288,5805.060959465619,-29281.16521610799,-36137.16049637324,-37523.28157702465,-40378.64987595676,-29258.902878630506,-39842.49858170731
14142.485158739706,5699.448966914292,-29376.71892365443,-36231.730727163645,-37600.55155760665,-40463.69826360921,-29360.04452229077,-39935.70535608594
14012.889744387836,5726.22635677175,-29316.592731069653,-36150.07980466841,-37824.40427832655,-40390.60805924035,-29427.569142290253,-39935.68300434149
13917.17957463021,5764.939578168342,-29225.48702066982,-36054.90607677771,-37776.52684170328,-40300.083494196355,-29340.777318570297,-39856.088442336135
13975.495275914107,5687.580190608524,-29279.645297485033,-36129.67266198071,-37551.757699460715,-40365.14942230576,-29262.590916465633,-39846.32073000917
14028.91594516229,5594.172250529797,-29387.760685415353,-36243.666558702775,-37572.88009797098,-40470.0014555456,-29344.24183896087,-39938.789896820774
13929.18246140271,5617.529823485592,-29353.361350698633,-36175.3372759029,-37805.82997868419,-40425.45442884618,-29433.224133637446,-39967.735405890395
13825.73858806355,5672.112783445452,-29248.464613969878,-36074.62031538729,-37819.39748756856,-40332.962910290116,-29368.53818518379,-39883.1117013826
13872.78901014197,5619.16150083083,-29272.13511134805,-36116.19456007416,-37589.979182479285,-40335.80158183594,-29272.448035770423,-39836.530665937746
13967.470999654652,5533.219043400174,-29381.77041790133,-36237.36336676638,-37547.063833125096,-40448.90140877979,-29325.98046374088,-39912.10191394114
13899.164068599233,5540.840988259433,-29376.897737610074,-36223.549988693,-37770.26835325579,-40438.15021969679,-29425.848057967196,-39957.47595518541
13774.284872327433,5613.573564717003,-29265.764864178287,-36094.40160923023,-37843.73853728039,-40325.542131130955,-29385.14553131408,-39884.832785705665
13813.802756524416,5604.543459957059,-29261.205108309405,-36096.368562742304,-37633.743898122775,-40329.20781722162,-29281.23227134136,-39832.48500019134
13945.655697066271,5534.291927134029,-29369.745179384376,-36231.82013414146,-37533.25045505172,-40443.62639708834,-29301.32648960668,-39889.727817741375
13921.426406076718,5531.006220699099,-29384.184406302502,-36228.64618642881,-37731.84570453712,-40452.567094870465,-29408.05606938077,-39953.92202781702
13786.1536486332,5601.369512244405,-29274.057361371204,-36097.95553659863,-37852.992159484886,-40334.86280856882,-29387.783037159807,-39886.442111306445
13798.760032505994,5622.313096799028,-29252.756148905297,-36094.53571969697,-37679.676732978434,-40326.70442184263,-29290.441190056943,-39834.2507880033
13942.884080753814,5571.574636885481,-29347.684007606986,-36213.93873857722,-37523.080411324554,-40432.60698707187,-29283.400390553525,-39882.575259515674
13950.304859912976,5549.5134651080925,-29394.935595385505,-36245.924084892766,-37689.667962749954,-40469.48736542313,-29395.896720397082,-39953.542048161275
13819.54715484943,5616.188718818274,-29307.361460609613,-36130.52202827001,-37866.98435151391,-40362.82484088241,-29416.147400873593,-39911.14078892956
13821.111776961301,5669.654091555369,-29248.88929711453,-36084.52213818099,-37726.5036376123,-40313.47218912509,-29311.384774611568,-39835.681299648444
13972.209569479177,5629.599765491458,-29325.779298040787,-36190.31294468796,-37527.28253928215,-40407.37186758183,-29271.93394564795,-39855.663759191484
14002.652645427304,5584.940980069755,-29398.78009543182,-36254.82007918598,-37652.005273342766,-40478.96450507218,-29384.877310380616,-39955.352539462154
13900.169897099722,5658.142943160885,-29310.781277511272,-36141.36262433084,-37849.572342583226,-40382.874355658816,-29420.193066620002,-39919.030954722286
13857.947451823647,5710.468376930759,-29237.82518360915,-36068.16066123971,-37758.600742650124,-40306.96783148859,-29323.119440450602,-39824.50542742079
13985.53120917454,5670.659920055857,-29304.388678597057,-36159.646351295276,-37543.24168482324,-40388.238774328085,-29267.731817690354,-39836.038927559726
14062.622375800895,5626.872852667911,-29386.687801681495,-36242.81719241347,-37606.564176865126,-40466.91691481077,-29359.061045534738,-39918.69567855545
13968.499179899596,5686.730824319223,-29322.404184628034,-36151.93499945819,-37828.29348186177,-40393.223213341626,-29424.082270155224,-39914.56060583122
13902.852106434359,5763.084383378552,-29229.487982927323,-36065.52315539398,-37792.77655992229,-40305.470264610085,-29343.817155816218,-39837.223570015856
14018.589439223939,5736.306993521094,-29276.02431488327,-36137.29460683997,-37568.119176402,-40370.69265493067,-29269.69877120242,-39833.2002560139
14118.255867750153,5671.397527622882,-29376.29424050978,-36236.044613843515,-37572.522470059695,-40473.53303116954,-29342.23018195989,-39917.04164946576
14032.40281729732,5698.756062836178,-29348.980408785395,-36181.97574400613,-37808.6239467411,-40423.95686196767,-29436.174563905548,-39947.10474575815
13942.034714464513,5780.697558009334,-29238.182811520437,-36061.54454488093,-37829.075792917705,-40310.20883443461,-29372.270926507823,-39868.09132910864
14018.432977012752,5768.292339836638,-29260.17692806446,-36105.08574307987,-37602.65262158545,-40339.534323159976,-29274.258527071303,-39814.46949416036
14131.443396978784,5701.035940770619,-29371.846243363172,-36226.902750361296,-37556.1162896295,-40461.95482754169,-29330.204943442935,-39892.588841031655
14079.319128909008,5717.263307245173,-29362.302048480757,-36200.23711922611,-37769.173117777485,-40445.43688838922,-29425.222209122447,-39939.59455962117
13966.308708942975,5792.4098721039145,-29253.873736128062,-36082.28696373546,-37850.51111585034,-40326.95029103164,-29388.833569149207,-39869.231268075855
14012.845040898925,5794.265066893705,-29246.184736035437,-36092.34524874035,-37642.885761605,-40331.17477073369,-29282.908652175505,-39808.5462818797
14138.685362182303,5719.319667735061,-29353.249591976357,-36212.88820658782,-37539.10661209901,-40436.7420597961,-29304.85806523062,-39873.70161696692
14115.484251437694,5716.771568867156,-29374.86372886464,-36218.83377061293,-37738.21595170689,-40455.20460071619,-29417.19793286299,-39941.4274026665
13992.303787744499,5797.5731250730905,-29272.917422403985,-36096.48032146458,-37873.2875434503,-40348.78794536447,-29411.855865938174,-39894.89107071055
14021.67397995877,5831.078390011596,-29225.151744502993,-36064.65143736022,-37683.230660346824,-40312.84634028034,-29292.65401275802,-39823.231377986835
14162.37821130493,5766.99593865823,-29317.75502178133,-36177.460691626155,-37517.1571990439,-40416.37962059732,-29279.645297485033,-39860.04470110473
14162.646432238393,5736.441103987826,-29377.165958543537,-36220.57720668044,-37684.862337692066,-40462.11128975288,-29392.298089539778,-39929.849199038654
14039.600079011927,5813.062883980619,-29283.5121492758,-36115.255786807036,-37861.17289795553,-40359.33796874738,-29409.48658102591,-39884.98924791685
14019.10352934641,5849.831503609598,-29223.810639835676,-36058.549411123924,-37727.44241087943,-40311.12525595728,-29310.04366994425,-39814.49184590481
14144.765036674147,5788.788889502155,-29308.12141992109,-36160.1827931622,-37534.77037367468,-40403.8849954468,-29277.49953001732,-39840.576331684155
14188.507400573184,5754.5460169966245,-29372.025057318817,-36222.23123577014,-37641.8352296156,-40463.877077564845,-29374.819025375728,-39911.92309998549
14067.718573536704,5808.681942067378,-29302.712297762908,-36127.79511544647,-37856.411976386546,-40386.070655115924,-29431.748918503396,-39907.49745458335
14014.566125221983,5857.900483357965,-29227.699843370898,-36054.88372503325,-37774.7163504024,-40316.95906126012,-29340.95613252594,-39830.89802633501
14132.650391179372,5808.570183345102,-29291.581129024165,-36148.15755464525,-37554.43990879535,-40396.46421628764,-29280.18173935196,-39837.26827350477
14213.116671218477,5762.927921167365,-29367.599411916664,-36223.70645090419,-37602.00442099624,-40471.40961544629,-29359.217507745925,-39916.05817270972
14103.302550709554,5799.853003007532,-29321.80068752774,-36154.55015355947,-37836.071888932216,-40415.95493745267,-29437.314502872767,-39927.18934144847
14024.892631160335,5866.282387528705,-29225.88935207002,-36053.4085098992,-37807.84163568517,-40320.53534037296,-29355.395359444068,-39835.59189267062
14126.615420176438,5840.041439538174,-29260.735721675843,-36112.19359781666,-37569.52733630268,-40358.35449199134,-29263.32852403266,-39812.23431971482
14207.752252549202,5760.782153699655,-29373.34381024168,-36235.485820232134,-37577.37279860649,-40481.93728708474,-29345.80646107274,-39913.13009418608
14124.715521897737,5785.547886556135,-29346.700530850954,-36182.60159285088,-37813.0272403988,-40439.424269130745,-29443.52828783134,-39943.17083873401
14027.619543983883,5861.4991142152685,-29238.473384198354,-36062.6621321037,-37841.19043841249,-40320.580043861875,-29380.183444045004,-39855.28377953575
14102.27437046461,5850.1667797764285,-29249.11281455908,-36099.318993010405,-37606.18419720938,-40351.29134074347,-29274.012657882293,-39822.4490669309
14217.72113057627,5778.507087052713,-29354.74715885486,-36219.32550899094,-37546.59444649154,-40460.77018508556,-29316.5703793252,-39888.94550668544
14174.381098077429,5798.489546595758,-29342.90073429355,-36185.01558125205,-37762.0652630407,-40430.86355100436,-29413.934578172517,-39913.912405242016
14062.73413452317,5881.2804080582155,-29230.02442479425,-36058.75057682402,-37847.22540941541,-40323.374011918786,-29379.401132989067,-39844.08555556364
14098.899257051857,5879.872248157531,-29224.68235786943,-36075.44732993213,-37643.7351278943,-40325.050392752935,-29275.689038716442,-39800.87963353153
14218.749310821213,5796.701407039333,-29339.659731347532,-36204.46159892817,-37536.06677485308,-40447.09091747891,-29301.95233845143,-39871.42173903248
14192.888342486423,5781.636331276457,-29367.867632850128,-36208.61902339685,-37736.85249529511,-40469.46501367867,-29418.62844450813,-39939.19222822097
14077.21806493021,5866.349442762071,-29256.466538484878,-36080.09649277884,-37871.789976571796,-40345.70340462964,-29406.871426924637,-39874.41687278949
14086.583445856983,5890.981065151819,-29216.903950798984,-36056.20247795612,-37692.97602092934,-40320.40122990623,-29290.262376101302,-39799.62793584203
14211.127365961955,5818.807282305633,-29321.443059616457,-36179.271182927034,-37540.00068187722,-40438.038460974516,-29289.70358248992,-39859.12827958206
14227.15356673641,5792.320465126093,-29366.213603760436,-36209.289575730516,-37693.62422151855,-40472.907182324794,-29396.76843843084,-39934.49836188536
14098.385166929385,5855.888826356987,-29276.761922450296,-36098.693144165656,-37874.31572369525,-40362.42250948221,-29419.09783114169,-39897.059189922715
14066.891558991858,5895.272600087238,-29222.246017723803,-36060.5610681249,-37749.05654776771,-40318.43427639417,-29320.191361926958,-39822.22554948635
14196.397566365906,5842.6789453839,-29296.051477915225,-36153.18669714769,-37544.49338251274,-40410.52346355003,-29276.136073605547,-39842.27506426276
14236.697761618825,5795.449709349837,-29367.934688083493,-36217.71618339016,-37646.99848258477,-40476.37170271536,-29374.640211420086,-39919.18741693347
14113.807870603547,5845.227044251806,-29302.041745429247,-36129.98558640308,-37862.64811308958,-40398.85585294436,-29432.86650572616,-39910.85021625164
14054.955727452723,5895.965504165352,-29224.950578802895,-36050.21221044209,-37791.681324443976,-40321.02707875098,-29343.973618027405,-39836.105982793095
14176.459810311773,5859.979195592308,-29277.90186141752,-36130.94671141466,-37562.06185365461,-40389.24460282858,-29274.325582304667,-39830.76391586827
14246.331363479063,5804.949200743342,-29371.24274626288,-36228.35561375089,-37615.88485430299,-40484.373627230365,-29369.432254962,-39919.90267275604
14149.414199520852,5853.273672255716,-29314.201094412936,-36142.74843248707,-37841.30219713476,-40410.545815294485,-29436.867467983662,-39924.28361466928
14069.864341004413,5922.072341689151,-29209.72904082883,-36036.46588760208,-37808.6239467411,-40300.39641861873,-29343.61599011612,-39827.58996815562
14156.924385657834,5881.906256902964,-29254.857212884097,-36105.86805413581,-37585.374723121495,-40362.33310250439,-29271.26339331429,-39820.16918899646
14250.645250158937,5811.922945013398,-29357.09409202267,-36212.10589553188,-37578.49038582926,-40471.38726370183,-29338.51979238031,-39900.32254461319
14164.367516561451,5825.5128056422245,-29342.073719748703,-36165.68132229821,-37817.20701661194,-40434.48453360612,-29436.77806100584,-39930.072716483206
14056.989736198157,5895.920800676442,-29237.065224297672,-36052.827364543366,-37855.04851997477,-40322.21172120711,-29380.608127189655,-39855.59670395812
14125.676646909315,5883.78380343721,-29248.64342792552,-36085.01387655901,-37631.32990972161,-40347.15626801924,-29282.37221030858,-39819.83391282963
14243.068008788588,5806.156194943928,-29356.535298411287,-36209.02135479705,-37565.28050485617,-40458.937342040226,-29324.840524773663,-39885.950372928426
14191.524886074649,5809.866584523509,-29357.965810056427,-36193.263374956055,-37782.20418479493,-40452.72355708165,-29429.469040568954,-39937.51584738682
14064.365811868407,5879.246399312782,-29258.142919319027,-36075.64849563223,-37880.55186039828,-40346.12808777429,-29407.38551704711,-39882.08352113766
14098.832201818492,5880.54280049119,-29243.480174956345,-36081.348190468336,-37678.02270388874,-40341.903608072236,-29303.628719285574,-39826.20415999939
14233.233241228252,5810.514785112713,-29340.95613252594,-36198.247813969596,-37550.90833317141,-40446.53212386753,-29308.970786210393,-39871.9134774105
14206.299389159607,5790.465270336303,-29376.405999232054,-36212.26235774307,-37746.82137332218,-40475.58939165943,-29423.63523526612,-39936.10768748614
14084.21416094472,5865.410669494948,-29269.87758515806,-36086.42203645969,-37888.17380525754,-40362.19899203766,-29421.377709076132,-39890.39837007503
14085.555265612038,5882.375643536526,-29223.4977154133,-36058.817632057384,-37709.27044263726,-40322.41288690721,-29305.08158267517,-39818.35869769558
14198.85625825599,5801.9764187307865,-29323.119440450602,-36175.56079334745,-37547.28735056965,-40433.29989114999,-29292.22932961337,-39860.849363905116
14218.615200354481,5781.412813831904,-29368.76170262834,-36207.23321524062,-37693.28894535171,-40474.4047492033,-29396.835493664206,-39932.86668454012
14086.382280156886,5842.544834917168,-29288.74245747834,-36104.124618068294,-37886.65388663458,-40383.65666671475,-29431.503049314386,-39910.89491974055
14057.704992020726,5880.721614446833,-29226.179924747936,-36052.78266105445,-37765.37332122008,-40329.20781722162,-29328.148582953047,-39838.13999153853
14182.76300224817,5818.874337538999,-29306.08741117566,-36156.092423926886,-37563.58177227757,-40420.46998983264,-29286.32846907717,-39856.580180714154
14233.322648206075,5783.715043510801,-29370.661600907042,-36214.229311255134,-37653.391081498994,-40487.41346447629,-29375.422522476023,-39929.782143805285
14119.75343462866,5840.510826171735,-29294.442152314445,-36116.440429263166,-37858.021301987326,-40391.30096331846,-29420.215418364456,-39911.05138195174
14053.949898952234,5885.9742743938305,-29218.468572910857,-36040.71271904859,-37790.49668198785,-40310.49940711253,-29333.781222555786,-39833.42377345845
14164.255757839175,5835.414628435926,-29284.182701609458,-36131.66196723723,-37579.45151084084,-40388.97638189511,-29276.22548058337,-39838.87759910555
14247.62776465747,5783.692691766345,-29361.38562695809,-36206.67442162924,-37615.16959848042,-40469.48736542313,-29349.71801635242,-39911.7219342854
14146.41906576384,5825.713971342322,-29314.13403917957,-36134.545342271966,-37839.15642966705,-40411.08225716141,-29426.54096204531,-39926.29527167026
14066.198654913744,5899.2959140891935,-29209.997261762295,-36023.77009675147,-37822.079696903194,-40306.63255532176,-29347.259324462335,-39845.98545384234
14159.807760692569,5872.943207376386,-29242.16142203348,-36081.63876314626,-37589.46509235681,-40351.29134074347,-29259.64048619753,-39821.487941919324
14254.802674627625,5804.949200743342,-29345.627647117097,-36192.32460168894,-37576.45637708383,-40454.95873152718,-29325.086393962672,-39893.70642825442
14166.222711351242,5813.331104914082,-29334.205905700437,-36158.796985005974,-37814.27893808829,-40431.77997252702,-29427.68090101253,-39931.07854498369
14055.872148975392,5880.967483635841,-29223.40830843548,-36037.47171610257,-37854.71324380794,-40318.50133162753,-29368.62759216161,-39852.7580324123
14122.70386489676,5871.579750964613,-29228.862134082574,-36067.04307401694,-37627.01602304173,-40339.109640015326,-29263.5073379883,-39811.45200865889
14242.330401221563,5800.0988721965405,-29332.887152777574,-36191.29642144399,-37550.10367037102,-40451.71772858116,-29298.756038994317,-39880.89887868153
14185.825191238546,5794.309770382616,-29343.504231393843,-36178.13124395982,-37767.563792176705,-40449.907237280284,-29409.06189788126,-39932.218483950914
14064.343460123953,5869.813963152643,-29235.679416141444,-36049.65341683071,-37869.53245038181,-40339.46726792661,-29386.263118536845,-39872.584029744154
14097.98283552919,5880.431041768914,-29217.68626185492,-36050.793355797934,-37667.69619795039,-40331.26417771151,-29279.75705620731,-39813.75423833779
14224.560764379594,5802.334046642071,-29323.18649568397,-36180.36641840535,-37544.35927204601,-40435.55741733997,-29291.335259835156,-39861.87754415006
14211.328531662051,5784.922037711387,-29355.99885654436,-36192.838691811405,-37732.82918129316,-40464.81585083197,-29406.20087459098,-39939.28163519879
14087.142239468365,5866.1929805508835,-29249.872773870564,-36059.84581230233,-37879.25545921987,-40354.84526811186,-29409.553636259276,-39900.54606205774
14086.985777257178,5897.798347210687,-29202.06239248066,-36024.9547392076,-37710.0527536932,-40306.61020357731,-29293.27986160277,-39815.0953430051
14215.776528808658,5831.883052811987,-29294.17393138098,-36139.507429541045,-37539.173667332376,-40400.64399250079,-29272.11275960359,-39839.34698573911
14223.934915534845,5791.359340114515,-29356.647057133563,-36184.657953340764,-37690.584384272624,-40455.18224897173,-29387.939499370994,-39924.73064955838
14096.21704771722,5855.330032745604,-29270.83871016964,-36074.62031538729,-37882.898793566084,-40365.17177405021,-29421.757688731876,-39900.52371031329
14078.492114364162,5909.376550838537,-29190.01480221925,-36008.928538433145,-37748.050719267216,-40289.28760162444,-29303.22638788538,-39807.383991168026
14205.04769147011,5854.123038545017,-29262.725026932363,-36112.28300479448,-37536.69262369783,-40375.095948588365,-29253.761977405786,-39824.080744276136
14246.912508834901,5797.483718095269,-29344.577115127697,-36189.575337120936,-37636.02377605722,-40455.29400769401,-29357.4293681895,-39914.98528897587
14128.783539388603,5849.071544298118,-29277.186605594947,-36099.76602789951,-37852.38866238459,-40376.32529453341,-29410.514761270853,-39902.49066382535
14065.148122924344,5904.950905436386,-29191.691183053397,-36015.58935828082,-37783.18766155096,-40301.9610407306,-29316.50332409183,-39818.98454654033
14162.8923014274,5852.156085032951,-29256.108910573592,-36108.594966959354,-37563.04533041064,-40370.759710164035,-29253.940791361427,-39825.69006987692
14242.0621802881,5793.326293626582,-29342.543106382265,-36191.78815982201,-37594.91891800391,-40458.04327226201,-29326.762774796818,-39899.80845449072
14136.964277859244,5821.847119551554,-29305.506265819822,-36126.20814159014,-37829.74634525136,-40405.516672792044,-29409.754801959374,-39910.93962322946
14037.25314584412,5879.06758535714,-29215.11581124256,-36028.30750087589,-37828.8299237287,-40311.95227050212,-29344.353597683144,-39833.13320078054
14115.663065393337,5841.226081994305,-29254.298419272713,-36095.98858308656,-37607.54765362116,-40364.0765385719,-29268.111797346093,-39814.89417730501
14219.86689804398,5773.209723616806,-29351.595562886665,-36202.20407273818,-37581.932554475374,-40467.2521909776,-29324.862876518117,-39895.76278874431
14149.302440798574,5796.723758783789,-29322.381832883577,-36142.81548772043,-37800.73378094838,-40429.90242599278,-29409.218360092447,-39923.36719314661
14033.006314397611,5861.856742126553,-29221.843686323606,-36028.93334972064,-37852.96980774043,-40316.310860670914,-29362.413807203033,-39844.73375615284
14092.573713371004,5852.357250733048,-29225.01763403626,-36053.721434321575,-37630.34643296557,-40328.961948032615,-29258.36643676358,-39797.303354418684
14207.349921149007,5777.545962041136,-29334.272960933802,-36179.78527304951,-37552.71882447229,-40446.08508897842,-29295.13505639256,-39867.152555841516
14154.577452490026,5772.80739221661,-29343.258362204837,-36173.4373776242,-37766.04387355374,-40444.453411633185,-29403.272796067336,-39923.16602744652
14037.409608055308,5855.084163556596,-29230.002073049793,-36042.99259698303,-37866.29144743579,-40322.882273540774,-29373.969659086426,-39857.921285381475
14062.667079289804,5858.124000802517,-29212.97004377485,-36040.153925437204,-37670.60192472958,-40322.90462528523,-29268.536480490744,-39805.417037655956
14186.831019739035,5783.402119088426,-29317.486800847866,-36166.79890952098,-37544.269865068185,-40440.76537379806,-29281.65695448601,-39866.39259653004
14177.37623183444,5771.779211971666,-29343.772452327306,-36182.86981378434,-37722.100343954604,-40460.14433624081,-29387.49246448189,-39931.68204208399
14046.998506426635,5842.857759339543,-29243.994265078818,-36072.675713619676,-37873.66752310604,-40345.9716255631,-29385.659621436553,-39876.98732340185
14040.002410412124,5868.852838141065,-29197.904968011975,-36040.869181259775,-37709.672774037455,-40310.25353792352,-29269.69877120242,-39797.526871863236
14161.864121182458,5793.974494215786,-29294.41980056999,-36153.81254599244,-37538.123135342976,-40421.49817007758,-29258.344085019125,-39851.349872511615
14179.18672313532,5759.262235076694,-29352.556687898243,-36214.54223567751,-37680.526099267736,-40482.71959814067,-29365.990086315884,-39938.96871077642
14054.642803030349,5831.145445244962,-29261.74155017633,-36104.705763424136,-37865.53148812431,-40387.16589059423,-29388.207720304457,-39905.88812898256
14016.823651411969,5873.569056221135,-29199.067258723648,-36045.473640617565,-37754.46566992589,-40320.4682851396,-29284.786198709753,-39828.059354789184
14150.241214065698,5830.0949132555625,-29265.049608355715,-36127.839818935376,-37538.2125423208,-40388.01525688353,-29228.079823026637,-39835.43543045943
14206.14292694842,5782.999787688231,-29342.23018195989,-36197.75607559158,-37621.76336309473,-40462.2006967307,-29321.443059616457,-39917.80160877724
14080.839047531968,5823.210575963328,-29288.071905144683,-36117.11098159683,-37847.40422337106,-40395.27957383151,-29386.374877259124,-39921.69081231247
14017.024817112067,5884.610817982057,-29199.715459312854,-36030.69913753261,-37789.33439127617,-40305.02322972098,-29295.98442268186,-39839.41404097248
14131.353990000964,5845.361154718537,-29247.74935814731,-36106.85153089184,-37555.82571695158,-40365.7752711505,-29217.73096534383,-39831.85915134659
14214.055444485599,5783.223305132783,-29338.966827269418,-36204.171026250246,-37584.48065334328,-40461.73131009714,-29296.85614071562,-39920.61792857861
14119.261696250642,5815.834500293076,-29301.237082628857,-36138.85922895184,-37819.419839313014,-40406.85777745936,-29380.47401672292,-39939.03576600978
14020.377578780364,5874.664291699444,-29210.31018618467,-36041.94206499363,-37825.6783277605,-40305.514968099,-29313.79876301274,-39872.5616779997
14093.378376171397,5837.225119736805,-29250.699788415408,-36103.14114131226,-37606.63123209849,-40353.79473612246,-29231.186715505926,-39851.193410300424
14199.079775700544,5773.880275950465,-29348.354559940646,-36210.98830830912,-37571.33782760356,-40448.0967459794,-29279.421780040477,-39909.84438775115
14133.924440613324,5795.136784927462,-29325.533428851777,-36167.71533104364,-37790.563737221215,-40413.65270777377,-29364.87249909312,-39937.80642006474
14027.373674794875,5873.993739365786,-29218.379165933035,-36045.58539933985,-37845.34786288117,-40292.819177248384,-29316.5703793252,-39865.09619535162
14071.406611371829,5850.747925132266,-29236.439375452923,-36090.62416441729,-37637.47663944682,-40324.98333751957,-29228.526857915745,-39842.36447124058
14191.971920963755,5779.6693777643895,-29339.056234247237,-36213.26818624356,-37552.450603538826,-40433.23283591662,-29260.914535631484,-39913.197149419444
14155.449170523783,5791.940485470353,-29342.029016259792,-36200.14771224829,-37754.57742864817,-40424.9403387237,-29359.441025190477,-39955.084318528694
14029.385331795853,5869.3669282635365,-29233.198372506904,-36076.453158432625,-37864.436252646,-40311.84051177985,-29340.82202205921,-39899.026143434785
14055.805093742025,5879.939303390897,-29213.10415424158,-36073.83800433135,-37672.43476777492,-40302.944517486634,-29235.277084741247,-39844.44318347492
14186.808667994579,5811.207689190828,-29313.865818246108,-36203.25460472758,-37535.35151903052,-40408.53415829351,-29239.568619676666,-39896.09806491114
14168.837865452513,5785.592590045046,-29357.272905978312,-36233.16123880878,-37714.88073049554,-40440.9441877537,-29351.997894286862,-39964.04736805527
14037.499015033129,5853.4524862113585,-29263.239117054836,-36107.94676637015,-37880.68597086501,-40336.4721341696,-29363.732560125896,-39923.09897221315
14031.464044030196,5879.805192924166,-29213.327671686136,-36072.00516128602,-37719.79811427571,-40296.30604938341,-29249.336332003633,-39843.14678229651
14163.786371205613,5814.158119458928,-29296.096181404137,-36183.31684867345,-37532.06581259559,-40379.14161433478,-29219.340290944612,-39868.02427387527
14183.455906326284,5773.0979648945295,-29359.821004846217,-36237.36336676638,-37668.09852935059,-40435.28919640651,-29331.456641132434,-39956.24660924037
14069.93139623778,5847.082239041596,-29269.765826435785,-36111.14306582726,-37860.65880783305,-40336.56154114742,-29363.173766514516,-39924.70829781393
14030.525270763073,5889.7293674623215,-29201.5930058471,-36052.80501279891,-37750.88939081304,-40266.57822925785,-29257.874698385564,-39830.18277051244
14141.904013383868,5821.5788986180905,-29283.288631831245,-36163.714368786146,-37546.43798428035,-40361.03670132598,-29216.278101954234,-39855.1049655801
14184.506438315682,5755.618900730479,-29374.751970142363,-36254.373044296866,-37640.672938903925,-40456.5010018946,-29328.66267307552,-39959.711129630945
14075.83225677398,5809.978343245786,-29302.444076829444,-36149.90099071276,-37853.86387751864,-40374.403044510254,-29381.748066156873,-39948.647016125564
14012.666226943282,5877.055928356162,-29208.052659994682,-36054.95078026662,-37789.84848139864,-40279.117557897276,-29284.22740509837,-39846.231323031345
14110.902143824356,5828.619698121513,-29267.530651990255,-36136.66875799522,-37568.27563861318,-40353.3253494889,-29220.30141595619,-39848.488849221336
14192.217790152765,5758.859903676499,-29369.029923561804,-36236.93868362173,-37601.02094424021,-40447.314434923464,-29307.294405376248,-39937.56055087573
14095.322977939008,5790.174697658384,-29330.38375739858,-36172.05156946797,-37829.34401385117,-40397.76061746605,-29384.743199913886,-39948.579960892195
14001.311540759987,5861.141486303984,-29223.4977154133,-36059.599943113324,-37831.69094701898,-40293.33326737086,-29313.575245568187,-39864.58210522916
14085.823486545503,5838.096837770562,-29248.866945370075,-36114.51817924001,-37601.53503436268,-40335.51100915802,-29221.35194794559,-39838.09528804962
14183.210037137276,5756.71413620879,-29357.831699589697,-36228.780296895544,-37571.62840028148,-40439.31251040847,-29280.718181218886,-39916.68402155447
14111.706806624748,5770.795735215633,-29345.51588839482,-36192.03402901102,-37802.07488561569,-40421.7887427555,-29385.972545858927,-39964.71792038893
13996.505915702095,5849.786800120688,-29238.987474320827,-36076.319047965895,-37867.654903847564,-40320.60239560633,-29344.66652210552,-39901.954221958425
14053.726381507682,5849.563282676135,-29232.50546842879,-36093.306373751926,-37644.517438950235,-40316.7131920711,-29231.521991672755,-39835.25661650379
14171.698888742792,5768.672319492379,-29339.3244551807,-36212.95526182118,-37552.025920394175,-40419.37475435433,-29258.701712930408,-39887.67145725149
14132.9856673462,5766.213627602295,-29351.506155908843,-36212.03884029852,-37758.75720486131,-40431.77997252702,-29367.934688083493,-39953.430289439
14010.67692168676,5845.2940994851715,-29241.893201100018,-36080.5658794124,-37874.516889395345,-40315.93088101517,-29347.661655862532,-39892.454730564925
14047.937279693757,5874.5301812327125,-29200.296604668692,-36061.79041406994,-37671.719511952346,-40287.432406834654,-29224.861171825072,-39817.53168315073
14179.343185346508,5804.658628065423,-29299.381887839067,-36176.700732314675,-37526.38846950394,-40400.15225412277,-29225.88935207002,-39873.67926522246
14170.111914886465,5777.903589952421,-29345.739405839373,-36209.58014840843,-37707.59406180311,-40438.75371679708,-29345.94057153947,-39953.117365016624
14036.448483043729,5845.450561696358,-29258.232326296846,-36103.54347271246,-37879.277810964326,-40337.7238318591,-29363.41963570352,-39912.236024407866
14019.10352934641,5870.506867230758,-29211.941863529908,-36069.92644905167,-37725.58721608963,-40301.916337241695,-29255.058378584195,-39837.67060490497
14149.123626842933,5807.6090583335235,-29298.309004105213,-36175.091406713895,-37541.83352492256,-40402.007448912555,-29227.07399452615,-39865.118547096085
14183.47825807074,5776.584837029557,-29352.780205342795,-36213.625814154846,-37665.19280257139,-40438.038460974516,-29327.701548063942,-39936.778239819796
14053.279346618576,5829.491416155269,-29281.209919596902,-36118.27327230851,-37868.72778758142,-40360.343797247864,-29378.507063210855,-39926.60819609263
14009.268761786076,5877.145335333984,-29209.147895472994,-36056.13542272275,-37767.541440432244,-40295.83666274985,-29282.685134730953,-39848.332387010145
14125.922516098324,5822.741189329767,-29280.382905052058,-36148.3810720898,-37553.970522161784,-40372.74901542056,-29229.68914862742,-39856.02138710277
14186.920426716857,5771.175714871373,-29361.631496147096,-36230.54608470751,-37631.709889377344,-40458.04327226201,-29326.13692595207,-39942.8802660561
14071.384259627373,5812.951125258342,-29305.863893731108,-36147.9340372007,-37859.5859240992,-40390.764521451536,-29397.595452975685,-39949.40697543704
14001.378595993352,5876.117155089039,-29205.839837293606,-36044.579570839356,-37802.924251904995,-40302.117502941794,-29298.241948871848,-39848.80177364371
14099.323940196507,5831.927756300897,-29257.338256518637,-36121.91660665472,-37571.5166415592,-40343.49058192856,-29218.78149733323,-39827.858189089085
14178.583226035027,5759.888083921443,-29363.732560125896,-36230.03199458504,-37600.86448202902,-40452.991778015115,-29307.361460609613,-39920.90850125653
14093.713652338225,5795.427357605381,-29321.71128054992,-36159.89222048428,-37827.68998476148,-40400.487530289596,-29387.04542959278,-39933.76075431833
13997.087061057933,5867.019995095729,-29221.374299690047,-36064.5620303824,-37838.82115350022,-40307.83954952235,-29321.376004383088,-39856.714291180884
14066.913910736313,5826.3398201870705,-29243.077843556148,-36096.54737669795,-37610.76630482272,-40328.201988721135,-29227.610436393075,-39826.382973955035
14164.859254939469,5744.0406971026305,-29342.252533704348,-36200.37122969285,-37565.21344962281,-40431.42234461574,-29274.6608584715,-39898.37794284558
14094.250094205154,5747.080534348552,-29330.09318472066,-36177.68420907071,-37783.210013295415,-40412.46806531764,-29371.91329859654,-39937.80642006474
13960.988993762612,5811.967648502308,-29228.102174771095,-36067.82538507287,-37854.46737461894,-40306.811369277406,-29334.965865011916,-39870.4606140209
13991.00738656609,5782.262180121205,-29231.544343417212,-36083.449254447136,-37646.08206106211,-40317.65196533823,-29237.713424886875,-39826.807657099685
14087.924550524302,5680.338225405005,-29345.605295372643,-36210.98830830912,-37555.55749601811,-40437.122039451846,-29266.16719557848,-39890.4654253084
14042.617564513394,5674.1914956797955,-29351.439100675478,-36202.80756983848,-37747.24605646683,-40434.104553950376,-29361.855013591652,-39935.95122527495
13880.299196278955,5714.536394421625,-29263.08265484365,-36090.95944058412,-37878.87547956413,-40323.75399157453,-29358.323437967712,-39885.83861420615
13867.424591472698,5695.64917035689,-29246.117680802072,-36081.66111489071,-37700.06152392167,-40312.332250157866,-29253.717273916875,-39822.73963960882
13969.437953166718,5598.866116865411,-29350.2768099638,-36213.625814154846,-37556.54097277415,-40423.621585800836,-29257.226497796357,-39876.160308857005
13938.749008029583,5550.4522383752155,-29389.168845316035,-36227.08156431694,-37723.12852419955,-40467.028673533045,-29365.185423515493,-39950.412803937536
13791.227494624556,5603.627038434392,-29299.985384939362,-36118.09445835286,-37893.42646520454,-40348.63148315329,-29382.977412101915,-39919.366230889114
13774.083706627334,5636.126474872408,-29240.97677957735,-36065.43374841616,-37739.13237322955,-40285.66661902268,-29268.02239036827,-39828.618148400565
13884.36721376982,5552.016860487087,-29332.104841721637,-36187.49662488659,-37550.37189130448,-40383.65666671475,-29236.21585800837,-39840.710442150885
13889.709280694638,5484.693406187703,-29417.153229374082,-36250.93087565075,-37691.83608196212,-40472.01311254658,-29358.03286528979,-39944.15431549005
13766.282947812433,5544.886654005844,-29333.84827778915,-36155.57833380441,-37897.15920652857,-40377.77815792301,-29397.14841808658,-39921.13201870108
13722.205307746568,5594.820451119001,-29244.59776217911,-36069.43471067366,-37783.344123762145,-40285.01841843348,-29281.947527163928,-39815.45297091639
13821.759977550504,5526.535871808037,-29327.03099573028,-36187.78719756451,-37576.12110091699,-40381.51089924704,-29235.053567296694,-39834.54136068122
13878.376946255798,5462.766344877046,-29421.57887477623,-36278.490576564145,-37660.878915891524,-40481.11027253989,-29336.172859212504,-39936.93470203099
13774.039003138425,5516.835214714434,-29351.796728586763,-36184.12151147384,-37878.920183053044,-40398.78879771099,-29392.543958728787,-39930.18447520548
13697.931313268104,5583.219895746696,-29256.243021040325,-36081.10232127933,-37829.29931036226,-40296.28369763895,-29302.265262873803,-39828.416982700466
13802.358663363299,5552.620357587381,-29309.037841443762,-36167.335351387905,-37605.55834836463,-40366.26700952852,-29232.25959923978,-39819.16336049597
13898.337054054387,5490.549563234993,-29404.591548990196,-36265.191288613234,-37623.21622648433,-40463.29593220901,-29312.770582767796,-39915.34291688716
13803.610361052795,5514.309467590984,-29370.169862529026,-36207.56849140746,-37852.72393855142,-40419.41945784324,-29399.852979165673,-39937.739364831374
13699.786508057894,5582.191715501752,-29269.89993690252,-36097.26263252051,-37868.571325370234,-40315.260328681514,-29340.553801125745,-39859.08357609315
13787.606512022796,5578.280160222073,-29287.75898072231,-36141.54143828648,-37640.807049370655,-40348.810297108925,-29245.156555790494,-39828.26052048928
13901.287484322487,5505.793452953512,-29395.941423885994,-36265.8618409469,-37597.042333727164,-40462.983007786635,-29297.83961747165,-39902.64712603654
13847.553890651929,5524.658325273791,-29383.692667924486,-36233.8541428869,-37821.319737591715,-40443.134658710325,-29401.57406348873,-39946.501248657856
13746.501653969486,5611.49485248266,-29271.866890414585,-36095.13921679726,-37889.51490992486,-40324.201026463634,-29361.631496147096,-39875.735625712354
13812.573410579374,5627.5210532571145,-29266.21189906739,-36107.209158803125,-37675.02757013173,-40322.59170086285,-29257.07003558517,-39819.45393317389
13943.644040065294,5561.896331536333,-29376.830682376705,-36240.805535412495,-37579.20564165183,-40443.536990110515,-29288.80951271171,-39889.12432064108
13918.252458364066,5564.511485637604,-29394.756781429864,-36241.923122635264,-37779.723141160386,-40455.29400769401,-29397.617804720143,-39950.412803937536
13802.559829063395,5651.280957613106,-29285.52380627678,-36113.512350739526,-37903.462398464966,-40338.394384192754,-29375.869557365128,-39885.03395140576
13833.3158294339,5682.4616411282595,-29247.905820358494,-36087.226699260085,-37715.327765384645,-40318.43427639417,-29258.925230374964,-39814.13421799352
13970.443781667207,5623.117759599419,-29354.590696643678,-36211.05536354248,-37569.59439153605,-40441.659443576274,-29263.17206182147,-39867.86781166409
13984.48067718514,5608.8573466369335,-29400.121200099136,-36245.74527093712,-37737.03130925075,-40460.36785368536,-29381.837473134696,-39948.08822251418
13866.642280416761,5686.3955481523935,-29301.55000705123,-36121.961310143626,-37905.40700023258,-40354.64410241176,-29396.567272730743,-39899.27201262379
13859.914405335714,5730.920223107365,-29235.031215552237,-36063.578553626365,-37751.64935012452,-40291.65688653671,-29274.191471837938,-39808.25570920178
13991.521476688562,5674.929103246821,-29324.929931751485,-36174.37615089132,-37562.21831586579,-40398.028838399514,-29245.469480212865,-39844.46553521938
14043.578689524973,5649.179893634307,-29387.85009239317,-36229.38379399583,-37682.38129405752,-40458.44560366221,-29350.120347752614,-39918.2709954108
13936.782054517515,5720.817234613566,-29302.108800662616,-36125.69405146767,-37882.45175867698,-40363.60715193834,-29388.364182515645,-39885.2127653614
13900.572228499917,5783.983264444264,-29215.54049438721,-36038.32108239187,-37780.19252779395,-40278.424653819166,-29280.248794585325,-39795.44815962889
14012.82268915447,5723.678257903845,-29296.252643615324,-36150.906819213254,-37577.77513000669,-40377.42053001172,-29237.26638999777,-39817.62109012855
14081.017861487611,5668.469449099237,-29383.71501966894,-36233.72003242016,-37650.328892508616,-40467.028673533045,-29338.69860633595,-39912.19132091896
13984.726546374148,5721.9124700918765,-29324.169972440002,-36149.6327697793,-37874.29337195079,-40408.578861782415,-29407.072592624736,-39913.53242558628
13923.482766566607,5799.562430329613,-29217.06041301017,-36046.41241388469,-37827.958205694944,-40297.06600869489,-29309.19430365495,-39813.173092981946
14041.343515079441,5786.039624934152,-29244.754224390297,-36101.44240873366,-37585.95586847733,-40324.60335786383,-29213.68529959742,-39781.32185713314
14133.70092316877,5720.571365424557,-29345.51588839482,-36198.06900001395,-37591.25323191324,-40433.76927778355,-29290.84352145714,-39868.58306748665
14042.997544169135,5740.352659267504,-29323.99115848436,-36157.120604171825,-37834.171990653515,-40408.75767573806,-29392.14162732859,-39904.94935571544
13948.919051756748,5814.783968303677,-29214.02057576425,-36040.109221948296,-37854.84735427467,-40297.26717439499,-29330.584923098675,-39825.332441965635
14028.357151550908,5802.356398386526,-29231.92432307295,-36076.38610319926,-37625.6302148855,-40329.07370675489,-29235.053567296694,-39793.391799139004
14138.953583115768,5729.512063206681,-29343.571286627208,-36196.9961162801,-37580.5690980636,-40445.90627502278,-29289.70358248992,-39874.8639076786
14090.606759858938,5751.349717539516,-29326.13692595207,-36162.95440947466,-37791.92719363299,-40422.995736956094,-29383.5362057133,-39916.907538999025
13979.76445910507,5833.470026668314,-29213.506485641778,-36037.024681213465,-37865.01739800184,-40310.164130945705,-29342.744272082364,-39845.38195674204
14028.49126201764,5835.794608091665,-29206.53274137172,-36045.406585384204,-37654.17339255493,-40315.752067059526,-29227.230456737336,-39779.93604897691
14152.31992630004,5758.502275765214,-29315.89982699154,-36172.87858401282,-37545.36510054649,-40407.59538502638,-29242.139070289028,-39834.60841591459
14132.89626036838,5761.966796155786,-29325.84635327415,-36153.96900820363,-37730.21402719188,-40410.14348389429,-29341.202001714948,-39883.04464614924
14004.664302428282,5836.1969394918615,-29226.582256148133,-36042.27734116046,-37863.45277588997,-40297.26717439499,-29332.66363533302,-39828.79696235621
14010.945142620223,5850.211483265339,-29204.20815994837,-36043.7078528056,-37694.585346530126,-40290.718113269584,-29234.897105085507,-39781.1877466664
14141.971068617233,5782.508049310213,-29301.862931473606,-36157.277066383016,-37536.67027195338,-40399.99579191158,-29229.063299782672,-39826.047697788206
14147.983687875712,5755.618900730479,-29346.588772128674,-36193.15161623378,-37692.23841336232,-40433.277539405535,-29332.5742283552,-39881.971762415385
14010.140479819833,5811.610020591023,-29267.26243105679,-36089.8195016169,-37882.5411656548,-40339.802544093436,-29369.38755147309,-39860.67054994948
13992.996691822613,5854.324204245116,-29205.325747171137,-36034.431878856645,-37746.016710521784,-40290.82987199186,-29269.31879154668,-39793.70472356138
14130.0352370781,5804.680979809878,-29280.472312029877,-36135.729984728096,-37542.593484234036,-40378.89574514577,-29225.48702066982,-39805.52879637823
14165.954490417778,5761.609168244501,-29354.14366175457,-36203.12049426085,-37661.12478508053,-40449.72842332464,-29333.065966733215,-39893.080579409674
14049.390143083352,5823.925831785898,-29272.001000881315,-36094.982754586075,-37868.839546303694,-40354.30882624493,-29374.260231764347,-39871.64525647703
13998.159944791789,5873.166724820939,-29195.31216565516,-36018.4503815711,-37783.52293771779,-40284.54903179992,-29281.36638180809,-39790.59783108209
14119.284047995097,5828.351477188048,-29254.164308805983,-36103.58817620137,-37559.73727223126,-40359.33796874738,-29220.703747356387,-39793.324743905636
14194.162391920376,5776.853057963021,-29334.22825744489,-36190.42470341024,-37619.349374693564,-40431.71291729366,-29306.243873386848,-39866.28083780776
14080.123791709399,5810.738302557266,-29285.94848942143,-36111.545397227455,-37850.77933678381,-40372.234925298086,-29382.843301635185,-39875.0650733787
13994.628369167849,5870.886846886498,-29195.178055188426,-36020.46203857208,-37826.37123183862,-40281.777415487464,-29308.74726876584,-39796.92337476294
14087.11988772391,5835.213462735827,-29238.898067343005,-36081.839928846355,-37600.79742679565,-40341.36716620531,-29230.471459683355,-39785.97101997984
14185.936949960822,5770.058127648607,-29337.871591791107,-36194.380962178824,-37598.07051397211,-40448.58848435742,-29296.632623271063,-39865.051491862716
14101.335597197485,5792.655741292923,-29312.65882404552,-36148.314016856435,-37830.461601073934,-40413.04921067348,-29391.404019761565,-39902.53536731427
14006.206572795698,5871.915027131442,-29200.765991302254,-36024.53005606295,-37853.327435651714,-40291.79099700344,-29325.891056763063,-39820.92914830794
14076.391050385362,5854.927701345408,-29215.942825787406,-36062.03628325895,-37623.30563346215,-40324.84922705284,-29221.35194794559,-39777.11972917554
14181.265435369663,5772.092136394041,-29326.4722021189,-36188.45774989817,-37569.23676362476,-40434.90921675077,-29270.83871016964,-39851.41692774498
14125.833109120502,5776.160153884906,-29324.95228349594,-36167.58122057691,-37790.58608896567,-40417.89953922028,-29377.545938199277,-39897.774445745286
14007.01123559609,5855.0394600676855,-29219.2955874557,-36038.142268436226,-37878.428444675024,-40306.252575666025,-29348.220449473913,-39835.56954092617
14043.533986036062,5852.156085032951,-29214.4452589089,-36053.095585476825,-37674.848756176085,-40315.193273448145,-29246.363549991078,-39786.194537424395
14166.289766584609,5776.696595751834,-29320.146658438047,-36174.174985191225,-37560.47487979828,-40430.30475739298,-29262.613268210087,-39839.682261905946
14145.212071563254,5770.5722177710795,-29340.442042403465,-36171.76099679006,-37751.24701872433,-40427.42138235824,-29367.934688083493,-39896.52274805579
14018.410625268296,5846.791666363677,-29238.22751500935,-36050.99452149803,-37885.89392732309,-40315.08151472587,-29357.67523737851,-39840.46457296188
14025.49612826063,5860.87326537052,-29207.985604761318,-36039.86335275929,-37718.09938169711,-40299.256479651514,-29256.421834995966,-39784.76402577925
14158.913690914356,5793.90743898242,-29300.052440172727,-36157.50058382757,-37550.349539560026,-40406.008411170056,-29246.520012202265,-39831.07684029065
14155.51622575715,5752.981394884753,-29351.23793497538,-36197.26433721356,-37703.593099545615,-40448.74494656861,-29353.361350698633,-39900.45665507992
14025.362017793897,5815.610982848523,-29259.59578270862,-36069.68057986267,-37885.625706389634,-40337.634424881275,-29375.869557365128,-39857.94363712593
14010.609866453395,5862.6837566714,-29195.289813910702,-36013.22007336856,-37750.911742557495,-40274.289581094934,-29265.74251243383,-39773.811670996154
14134.37147550243,5797.52842158418,-29280.673477729975,-36129.11386836933,-37557.92678093038,-40377.50993698954,-29231.812564350676,-39805.126464978035
14165.909786928867,5738.452760988804,-29352.08730126468,-36190.42470341024,-37665.46102350486,-40446.15214421179,-29333.110670222126,-39886.88914619555
14045.299773848032,5795.5167645832025,-29276.47134977238,-36093.32872549638,-37876.17091848504,-40360.924942603706,-29382.977412101915,-39874.79685244523
13996.19299127972,5857.833428124599,-29193.21110167636,-36015.16467513617,-37793.916498889506,-40274.91542993968,-29284.495626031832,-39788.005028725274
14109.516335668128,5806.6702850664005,-29260.132224575547,-36104.86222563532,-37575.383493349975,-40357.348663490855,-29227.96806430436,-39797.77274105224
14179.85727546898,5752.534359995647,-29348.220449473913,-36202.986383794116,-37625.67491837441,-40452.00830125908,-29313.88816999056,-39882.70936998241
14077.709803308226,5798.981284973775,-29296.02912617077,-36110.830141404884,-37852.36631064014,-40385.377751037806,-29382.172749301524,-39878.686055980455
13997.310578502487,5867.39997475147,-29195.781552288718,-36009.688497744624,-37825.991252182874,-40274.06606365038,-29303.78518149676,-39791.33543864911
14092.260788948632,5833.2018057348505,-29234.4500701964,-36073.726245609076,-37594.71775230381,-40324.916282286205,-29224.771764847254,-39776.35976986406
14183.500609815195,5759.575159499069,-29342.00666451534,-36191.20701446617,-37591.789673780164,-40438.306681907976,-29298.979556438873,-39863.017483117284
14097.088765750977,5782.016310932197,-29318.13500143707,-36141.80965921994,-37824.113705648626,-40405.89665244778,-29396.00847911936,-39901.127207413585
13997.690558158227,5864.293082272182,-29204.901064026486,-36017.19868388161,-37856.38962464209,-40290.44989233612,-29332.104841721637,-39818.2469389733
14068.858512503924,5854.435962967392,-29208.186770461416,-36042.836134771846,-37624.75849685175,-40306.096113454834,-29222.15661074598,-39764.69215925839
14175.56574053356,5769.700499737322,-29321.599521827644,-36167.402406621266,-37563.93940018885,-40426.03557420201,-29269.09527410213,-39837.11181129358
14114.36666421493,5766.95123516932,-29330.89784752105,-36156.53945881599,-37788.887356387066,-40425.20855965716,-29386.15135981457,-39899.94256495745
14002.652645427304,5857.967538591331,-29217.462744410368,-36034.163657923185,-37877.310857452256,-40314.47801762557,-29350.90265880855,-39831.32270947966
14038.415436555797,5859.196884536372,-29208.052659994682,-36042.836134771846,-37674.33466605362,-40316.28850892645,-29243.323712745158,-39770.21304013885
14154.75626644567,5772.986206172252,-29321.577170083187,-36169.39171187779,-37563.067682155095,-40421.29700437749,-29266.278954300757,-39831.613282157574
14139.400618004873,5766.683014235856,-29338.94447552496,-36175.42668288072,-37746.441393666435,-40439.91600750876,-29374.70726665345,-39897.70739051192
14020.377578780364,5847.238701252782,-29231.65610213949,-36039.885704503744,-37887.48090117942,-40322.524645629484,-29370.326324740214,-39846.27602652026
14029.385331795853,5875.223085310828,-29189.232491163315,-36013.19772162411,-37712.399686861005,-40288.17001440168,-29253.761977405786,-39769.475432571824
14167.049725896088,5818.360247416526,-29274.41498928249,-36119.32380429791,-37538.16783883188,-40382.583782980895,-29230.87379108355,-39803.07010448815
14183.791182493113,5795.00267446073,-29322.51594335031,-36155.243057637585,-37687.723360982345,-40422.8392747449,-29336.396376657056,-39869.253619820316
14048.20550062722,5852.826637366609,-29240.68620689943,-36050.21221044209,-37876.01445627385,-40330.280700955474,-29372.136816041093,-39847.21479978738
14020.601096224917,5892.322169819137,-29178.68246778041,-36003.45236104159,-37750.017672779286,-40275.45187180661,-29266.725989189865,-39768.87193547153
14141.076998839022,5827.747980087755,-29261.83095715415,-36103.40936224572,-37548.7625657037,-40359.2262100251,-29221.687224112422,-39780.450139099376
14185.065231927067,5782.396290587937,-29329.936722509472,-36168.519993844035,-37646.52909595121,-40429.634205059316,-29318.537332837266,-39859.7094249379
14062.577672311983,5831.681887111889,-29262.12152983207,-36077.99542880004,-37861.932857267006,-40353.07948029989,-29372.00270557436,-39849.539381210736
13993.801354623003,5876.117155089039,-29188.87486325203,-36000.83720694032,-37795.324658790196,-40284.146700399724,-29284.205053353915,-39768.424900582424
14091.70199533725,5818.2931921831605,-29262.859137399097,-36109.779609415484,-37582.29018238666,-40371.29615203097,-29232.21489575087,-39781.25480189977
14165.66391773986,5759.888083921443,-29353.674275121008,-36194.045686011996,-37628.31242422014,-40451.516562881065,-29316.3692136251,-39865.386768029544
14064.052887446034,5797.662532050912,-29306.020355942295,-36118.876769408795,-37855.49555486388,-40391.56918425193,-29389.30295578277,-39872.382864044055
13987.76638362007,5870.082184086106,-29199.58134884612,-36010.35905007828,-37834.328452864705,-40289.15349115771,-29309.99896645534,-39789.055560714674
14073.351213139442,5832.643012123467,-29241.200297021904,-36076.92254506618,-37605.60305185355,-40340.18252374918,-29227.453974181888,-39772.04588318418
14168.770810219146,5763.933749667854,-29340.82202205921,-36186.982534764116,-37591.34263889106,-40443.961673255166,-29288.675402244975,-39846.18661954244
14089.667986591816,5783.1338981549625,-29316.212751413914,-36139.84270570787,-37820.11274339113,-40408.98119318261,-29380.63047893411,-39878.12726236907
13990.180372021243,5861.052079326163,-29204.386973904013,-36020.37263159426,-37858.93772351,-40296.75308427252,-29324.907580007028,-39797.81744454115
14056.319183864498,5853.072506555618,-29208.20912220587,-36034.96832072357,-37632.983938811296,-40303.01157272,-29220.614340378565,-39749.44826953987
14173.643490510403,5780.742261498244,-29312.99410021235,-36159.19931640617,-37558.70909198631,-40417.92189096474,-29257.36060826309,-39819.76685759627
14121.78744337409,5780.496392309236,-29322.404184628034,-36150.50448781306,-37780.281934771774,-40418.95007120968,-29369.074627050715,-39880.60830600361
14005.96070360669,5861.163838048439,-29208.767915817254,-36023.07719267335,-37874.5392411398,-40297.66950579519,-29335.323492923202,-39813.106037748585
14032.291058575041,5860.023899081219,-29195.602738333077,-36028.82159099836,-37674.289962564704,-40297.49069183954,-29227.78925034872,-39756.24319985428
14151.783484433114,5779.177639386373,-29306.959129209416,-36159.1322611728,-37559.58081002007,-40416.558434552964,-29246.944695346916,-39807.093418490105
14152.699905955782,5782.776270243678,-29319.23023691538,-36159.55694431745,-37731.30926267019,-40422.213425900154,-29341.85020230415,-39859.41885225998
14034.68269523176,5861.230893281805,-29215.093459498104,-36041.09269870433,-37870.940610282494,-40307.727790800076,-29338.76566156932,-39810.580290625134
14025.674942216272,5872.54087597619,-29184.76214227225,-36016.10344840329,-37712.265576394275,-40284.414921333184,-29238.40632896499,-39744.06149912614
14154.063362367555,5804.189241431862,-29277.186605594947,-36128.331557313395,-37541.65471096691,-40376.25823930004,-29224.5482474027,-39783.44527285639
14171.743592231704,5770.862790448999,-29329.71320506492,-36166.77655777652,-37684.08002663613,-40422.28048113352,-29326.315739907714,-39856.088442336135
14048.607832027415,5833.53708190168,-29243.614285423075,-36059.465832646594,-37873.600467872675,-40330.68303235567,-29356.222373988912,-39828.327575722644
14014.789642666537,5870.3057015306595,-29179.129502669515,-36002.46888428556,-37757.4608036829,-40273.44021480563,-29255.773634406763,-39753.44923179737
14140.428798249817,5813.778139803188,-29251.906782615995,-36097.68731566516,-37554.752833217724,-40360.36614899232,-29213.506485641778,-39775.130423919014
14185.556970305082,5766.3477380690265,-29326.963940496917,-36161.50154608507,-37644.83036337261,-40428.40485911428,-29307.339108865155,-39840.285759006234
14068.478532848185,5817.3544189160375,-29261.4062740095,-36073.97211479808,-37860.21177294395,-40355.2252477676,-29364.559574670744,-39831.18859901292
14014.588476966439,5876.295969044682,-29173.094531666582,-35990.93538414662,-37792.70950468892,-40267.13702286923,-29272.760960192798,-39753.22571435281
14133.008019090656,5837.985079048286,-29226.78342184823,-36066.21605947209,-37564.38643507796,-40330.97360503359,-29201.525950613734,-39749.33651081759
14207.819307782569,5769.3428718260375,-29327.209809685926,-36171.91745900124,-37614.76726708022,-40441.95001625419,-29291.804646468718,-39844.487886963834
14116.825356105013,5813.733436314277,-29278.147730606524,-36110.070182093405,-37843.71618553593,-40387.545870249975,-29366.459472949446,-39855.5072969803
14032.738093464148,5883.604989481568,-29172.133406655004,-35986.688552700114,-37825.83478997169,-40265.03595889044,-29283.735666720353,-39760.71354874534
14113.137318269888,5847.797494864166,-29208.902026283984,-36056.78362331195,-37601.13270296249,-40317.3166891714,-29198.195540689892,-39738.361804290034
14209.808613039091,5773.634406761456,-29312.681175789974,-36181.01461899455,-37583.05014169814,-40433.791629528,-29261.629791454056,-39829.31105247868
14138.148920315376,5792.074595937085,-29289.256547600813,-36139.48507779659,-37803.48304551638,-40404.71200999165,-29349.04746401876,-39864.917381395986
14034.816805698492,5869.344576519082,-29182.05758119316,-36004.70405873109,-37849.23706641639,-40283.2079271326,-29294.93389069246,-39783.668790300944
14091.83610580398,5854.525369945213,-29191.557072586667,-36036.689405046636,-37629.564121909636,-40308.487750111555,-29193.993412732296,-39741.87102816952
14205.226505425753,5775.601360273524,-29295.112704648105,-36159.82516525092,-37548.181420347864,-40415.12792290782,-29222.424831679444,-39812.055505759185
14163.339336316507,5777.724775996778,-29301.393544840044,-36146.10119415536,-37754.53272515926,-40409.1376553938,-29324.907580007028,-39865.02914011826
14033.833328942459,5844.511788429236,-29203.15762795897,-36029.62625379876,-37867.11846198064,-40305.15734018771,-29307.987309454362,-39809.99914526929
14050.150102394833,5842.991869806275,-29189.880691752518,-36040.109221948296,-37676.9945236438,-40297.3118778839,-29209.43846815091,-39764.669807513936
14168.904920685878,5759.843380432532,-29299.22542562788,-36159.512240828546,-37545.92389415787,-40404.91317569175,-29209.86315129556,-39816.324688950146
14157.32671705803,5746.924072137364,-29320.101954949136,-36148.314016856435,-37718.09938169711,-40411.93162345071,-29301.393544840044,-39866.996093630325
14026.457253272207,5810.537136857169,-29224.727061358342,-36039.23750391454,-37870.62768586012,-40307.571328588885,-29308.70256527693,-39822.471418675355
14018.254163057109,5830.988983033774,-29192.093514453594,-36026.675823530655,-37719.50754159779,-40271.272095593464,-29210.623110607045,-39760.311217345145
14127.956524843756,5746.544092481625,-29290.6647075015,-36143.79896447647,-37544.47103076828,-40375.878259644305,-29187.712572540353,-39797.95155500789
14124.871984108924,5682.931027761821,-29349.650961119052,-36199.544215148,-37682.51540452426,-40429.701260292684,-29291.55877727971,-39877.85904143561
13985.799430108003,5734.652964431401,-29269.430550268957,-36102.38118200078,-37876.8414708187,-40335.198084735646,-29328.372100397602,-39859.105927837605
13924.063911922445,5756.669432719878,-29204.20815994837,-36038.11991669177,-37760.52299267328,-40263.605447245296,-29223.65417762449,-39771.53179306171
14022.992732881634,5673.520943346137,-29285.27793708777,-36143.217819120626,-37559.60316176453,-40357.1251460463,-29183.77866551622,-39795.38110439552
14049.948936694735,5592.875849351389,-29373.85790036415,-36230.07669807395,-37659.7389769243,-40444.20754244418,-29293.592786025143,-39893.482910809864
13926.097920667878,5642.563777275536,-29294.75507673682,-36133.78538296049,-37866.0902817357,-40349.63731165377,-29336.686949334977,-39874.03689313375
13838.389675425253,5684.182725451318,-29210.91368328496,-36047.10531796281,-37803.30423156074,-40263.71720596757,-29245.06714881267,-39789.1449676925
13927.930763713213,5615.942849629266,-29273.23034682636,-36138.38984231828,-37583.49717658725,-40338.1708667482,-29183.15281667147,-39794.084703217115
13980.300900971997,5520.657363016291,-29372.650906163562,-36248.24866631611,-37621.20456948335,-40439.8936557643,-29272.023352625773,-39887.1126636401
13868.36336473982,5536.504749835104,-29326.449850374443,-36185.82024405244,-37847.1360024376,-40385.66832371573,-29349.203926229948,-39899.00379169033
13770.798000192404,5599.089634309964,-29227.856305582085,-36087.58432717137,-37846.71131929295,-40299.10001744032,-29284.495626031832,-39829.13223852304
13838.45673065862,5561.538703625048,-29260.422797253468,-36139.03804290749,-37617.65064211495,-40331.130067244776,-29197.949671500883,-39803.71830507735
13916.66548450774,5463.325138488429,-29378.171787044026,-36265.906544435806,-37599.29985991715,-40442.37469939884,-29260.489852486833,-39879.06603563619
13839.462559159108,5469.9412548472,-29359.61983914612,-36222.38769798132,-37829.45577257345,-40409.785855983006,-29355.127138510605,-39908.63739355056
13727.94970607158,5542.852645260411,-29241.423814466456,-36092.07702780688,-37876.059159762764,-40288.6617527797,-29297.683155260464,-39822.69493611991
13774.843665938815,5529.352191609406,-29246.63177092454,-36114.42877226219,-37655.44744198888,-40303.14568318673,-29194.86513076605,-39776.06919718614
13886.64709170426,5447.634213880803,-29361.117406024627,-36242.906599391295,-37576.38932185046,-40424.06862068995,-29236.908762086485,-39854.769689413275
13829.694846832139,5426.847091537367,-29374.684914908998,-36239.30796853399,-37787.5686034642,-40428.69543179219,-29348.511022151833,-39915.56643433171
13693.595074843774,5484.291074787507,-29277.87950967306,-36118.20621707514,-37905.80933163277,-40316.48967462655,-29334.18355395598,-39853.875619635066
13711.85645006376,5492.114185346864,-29252.89025937203,-36105.398667502246,-37712.399686861005,-40298.898851740225,-29223.40830843548,-39786.462758357855
13834.500471890029,5417.638172821781,-29350.008589030338,-36221.11364854737,-37569.75085374723,-40404.533196036005,-29224.816468336165,-39834.51900893677
13828.174928209179,5396.269905122507,-29391.3369645282,-36248.96392213868,-37754.75624260381,-40438.41844063025,-29346.18644072848,-39911.02903020728
13702.28990343689,5465.068574555943,-29284.965012665394,-36126.72223171261,-37909.83264563473,-40327.151456731735,-29350.880307064093,-39863.68803545094
13679.938158981582,5479.507801474071,-29239.054529554192,-36090.11007429482,-37751.31407395769,-40286.98537194555,-29240.820317366164,-39787.46858685835
13799.519991817475,5405.568230815916,-29343.23601046038,-36220.73366889163,-37582.82662425359,-40406.790722226,-29228.571561404653,-39831.32270947966
13808.103061688313,5349.308890021907,-29417.041470651802,-36289.48763483616,-37729.49877136931,-40480.037388806035,-29350.2768099638,-39933.53723687377
13685.548446839864,5412.676085552703,-29321.621873572098,-36166.32952288741,-37916.89579688261,-40363.428337982696,-29377.903566110563,-39900.836634735664
13638.162748594612,5445.823722579923,-29251.16917504897,-36101.129484311285,-37803.415990283014,-40296.9095464837,-29270.592840980633,-39801.393723654
13748.848587137294,5378.902599680734,-29327.388623641567,-36208.14963676329,-37594.98597323728,-40392.21738484113,-29219.899084555997,-39821.04090703022
13802.336311618843,5321.413912941684,-29408.994842647895,-36289.666448791795,-37679.050884133685,-40474.69532188122,-29314.782239768774,-39917.2204634214
13689.482353863998,5371.414765288207,-29341.38081567059,-36199.49951165909,-37894.90168033858,-40395.167815109235,-29369.85693810665,-39906.53632957177
13620.706036175017,5433.262042196041,-29254.74545416182,-36111.120714082805,-37841.99510121287,-40306.29727915493,-29281.79106495274,-39811.31789819216
13729.268458994444,5390.927838197689,-29308.5684548102,-36189.418874909745,-37616.913034547935,-40374.93948637718,-29209.86315129556,-39808.92626153544
13807.365454121287,5322.307982719896,-29407.698441469485,-36294.919108738795,-37644.40568022796,-40471.051987535,-29289.65887900101,-39888.5655270297
13711.297656452378,5353.712183679603,-29367.15237702756,-36223.59469218191,-37873.51106089486,-40415.03851593,-29370.05810380675,-39903.65295453703
13613.732291904962,5416.542937343471,-29257.092387329627,-36108.90789138173,-37867.7890143143,-40305.604375076815,-29294.285690103257,-39822.31495646417
13688.163600941134,5394.7276347550915,-29285.568509765686,-36160.272200140025,-37640.09179354808,-40344.85403834034,-29208.946729772895,-39796.476339873836
13787.58416027834,5315.982439039045,-29393.19215931799,-36275.048407918024,-37611.43685715638,-40456.702167594696,-29270.88341365855,-39871.80171868822
13718.00317978897,5328.074732789366,-29377.925917855016,-36242.07958484645,-37834.954301709455,-40438.82077203045,-29363.15141477006,-39909.307945884226
13603.964579577992,5403.601277303848,-29279.667649229486,-36130.45497303665,-37902.50127345339,-40326.994994520544,-29327.299216663745,-39841.068070062174
13664.269586118411,5408.295143639462,-29285.836730699153,-36152.76201400304,-37695.52411979725,-40337.23209348108,-29236.3499684751,-39804.433560899924
13775.625976994752,5317.837633828835,-29386.62074644813,-36263.82783220147,-37598.69636281686,-40443.87226627735,-29260.422797253468,-39861.29639879423
13728.083816538314,5302.884316788235,-29400.836455921708,-36261.8608786894,-37805.60646123964,-40447.40384190129,-29370.95217358496,-39915.70054479844
13606.423271468077,5387.39626257375,-29300.924158206482,-36134.92532192771,-37924.47303825296,-40345.90457032974,-29357.71994086742,-39863.93390463995
13619.40963499661,5394.772338244002,-29278.259489328804,-36127.16926660172,-37735.04200399423,-40332.82879982338,-29250.297457015215,-39803.85241554408
13745.227604535534,5318.552889651405,-29380.943403356483,-36258.86574493239,-37593.756627292234,-40445.16866745576,-29254.566640206176,-39852.51216322329
13742.724209156539,5291.61903758276,-29425.937464945015,-36290.60522205892,-37776.504489958825,-40483.27839175206,-29376.853034121163,-39930.36328916113
13614.291085516345,5362.183494828164,-29326.04751897425,-36171.09044445639,-37938.88991342663,-40369.41860549672,-29386.084304581203,-39887.626753762575
13596.186172507547,5388.200925374142,-29266.189547322938,-36113.19942631715,-37772.74939689033,-40313.3157269139,-29258.07586408566,-39798.04096198571
13720.126595512224,5316.675343117159,-29360.066874035227,-36235.642282443325,-37595.231842426285,-40418.41362934275,-29235.701767885897,-39830.69686063491
13754.078895339835,5278.096232187299,-29424.10462189968,-36295.120274438894,-37726.883617268046,-40484.507737697095,-29347.549897140256,-39922.450771623946
13624.327018776778,5328.588822911838,-29336.128155723592,-36174.465557869145,-37921.94729112951,-40383.500204503565,-29382.57508070172,-39900.81428299121
13585.747907846917,5374.92398916769,-29258.008808852293,-36102.805865145434,-37808.69100197447,-40300.73169478556,-29270.637544469544,-39796.45398812938
13701.57464761432,5325.034895543444,-29336.306969679234,-36208.373154207846,-37603.479636130294,-40397.22417559912,-29225.777593347742,-39815.07299126065
13760.493845998508,5268.127354160232,-29418.74020323041,-36290.69462903674,-37680.45904403437,-40482.004342318105,-29324.639359073564,-39908.63739355056
13640.532033506875,5295.508241117984,-29363.01730430333,-36210.742439120106,-37908.58094794524,-40403.415608813244,-29392.611013962152,-39905.441094093454
13568.604119849697,5359.009547115511,-29270.54813749172,-36118.541493241966,-37860.6364560886,-40319.238939194554,-29308.07671643218,-39818.82808432914
13667.622347786708,5321.860947830791,-29327.790955041764,-36202.18172099373,-37637.90132259147,-40391.85975692985,-29244.083672056637,-39827.05352628869
13763.220758822055,5269.915493716657,-29411.654700238076,-36288.75002726913,-37647.60197968507,-40473.801252103,-29305.08158267517,-39896.723913755886
13672.249158888955,5307.555831379394,-29374.461397464445,-36225.583997438436,-37876.26032546286,-40420.87232123283,-29386.330173770213,-39908.63739355056
13579.310605443789,5384.401128816739,-29269.475253757868,-36110.96425187162,-37884.61987788914,-40313.248671680536,-29320.437231115968,-39825.041869287714
13647.103446376736,5345.553796953416,-29296.342050593146,-36167.760034532555,-37653.4357849879,-40352.99007332207,-29219.78732583372,-39794.241165428306
13753.67656393964,5268.015595437956,-29398.891854154095,-36274.53431779556,-37611.369801923014,-40458.646769362305,-29268.871756657572,-39863.97860812886
13680.541656081874,5273.201200151587,-29396.410810519556,-36248.44983201621,-37844.54320008078,-40448.25320819059,-29377.836510877194,-39907.22923364988
13560.736305801429,5336.680154404659,-29295.023297670283,-36136.19937136166,-37920.78500041783,-40341.680090627684,-29344.152431983046,-39838.765840383276
13614.156975049613,5341.709296907103,-29285.12147487658,-36148.33636860089,-37698.36279134307,-40335.93569230267,-29232.21489575087,-39787.42388336943
13744.62410743524,5273.42471759614,-29385.592566203188,-36264.11840487938,-37598.89752851695,-40446.95680701218,-29252.957314605395,-39850.4558027334
13707.542563383886,5262.561769790861,-29410.738278715406,-36271.71799799419,-37813.988365410376,-40463.67591186475,-29373.209699774947,-39917.84631226615
13584.339747946233,5341.061096317899,-29302.60053904063,-36145.49769705507,-37929.74804994441,-40353.526515189,-29358.2787344788,-39859.396500515526
13604.992759822937,5355.947358125134,-29265.16136707799,-36117.04392636346,-37733.05269873771,-40315.34973565933,-29238.383977220536,-39783.51232808975
13736.353961986777,5287.752185791992,-29356.87057457812,-36231.46250623018,-37581.35140911954,-40416.357268852866,-29231.63375039503,-39828.484037933835
13728.307333982866,5260.170133134143,-29404.14451410109,-36273.32732359497,-37750.53176290176,-40460.97135078566,-29345.76175758383,-39905.68696328247
13585.725556102463,5307.891107546224,-29321.04072821626,-36162.75324377456,-37931.491486011924,-40370.26797178602,-29375.690743409486,-39883.290515338245
13575.644919353119,5342.804532385413,-29274.392637538036,-36131.617263748325,-37792.038952355266,-40330.97360503359,-29276.60546023911,-39818.09047676212
13702.424013903621,5284.935865990623,-29357.541126911776,-36238.97269236716,-37600.14922620645,-40422.32518462243,-29239.792137121218,-39829.57927341214
13728.530851427418,5243.003993392467,-29412.638176994107,-36290.22524240318,-37715.618338062566,-40473.28716198053,-29333.04361498876,-39892.7676549873
13611.698283159529,5302.347874921307,-29337.424556902,-36205.37802045084,-37922.59549171871,-40396.218347098635,-29379.602298689166,-39886.933849684465
13569.051154738803,5349.778276655469,-29268.201204323916,-36118.02740311949,-37830.90863596304,-40322.97168051859,-29286.909614433007,-39813.97775578234
13662.347336095256,5272.240075140009,-29337.983350513383,-36213.961090321674,-37616.64481361447,-40410.121132149834,-29232.103137028593,-39827.52291292226
13732.330647984822,5221.948650115568,-29416.77324971834,-36300.48469310817,-37682.24718359079,-40502.23267105015,-29320.45958286042,-39907.25158539433
13635.189966582057,5281.516049088961,-29364.42546420401,-36217.76088687908,-37910.726715412944,-40434.97627198414,-29392.409848262054,-39915.83465526517
13544.978325960437,5324.811378098891,-29280.047628885226,-36128.71153696913,-37871.16412772705,-40330.34775618884,-29306.64620478704,-39825.69006987692
13650.076228389291,5293.563639350372,-29323.722937550898,-36193.82216856744,-37644.42803197241,-40387.52351850552,-29231.7008056284,-39815.36356393857
13743.506520212475,5237.41605727864,-29419.634273008618,-36288.43710284676,-37656.676787933924,-40485.64767666432,-29310.37894611108,-39901.4177800915
13646.03056264288,5256.616205765749,-29382.91035686855,-36230.92606436325,-37884.35165695568,-40437.122039451846,-29395.29322329679,-39919.030954722286
13547.593480061709,5325.548985665916,-29275.21965208288,-36118.34032754187,-37897.583889673224,-40326.14562823124,-29322.89592300605,-39825.08657277663
13623.12002457619,5305.6782848451485,-29304.79100999725,-36165.45780485366,-37676.92746841043,-40369.08332932989,-29239.41215746548,-39799.87380503104
13735.348133486288,5237.438409023096,-29408.368993803146,-36285.44196908975,-37634.83913360109,-40480.84205160643,-29296.118533148594,-39888.1631956295
13675.13253392369,5244.970946904534,-29401.57406348873,-36255.46827977518,-37858.714206065444,-40459.6525978628,-29396.746086686384,-39931.07854498369
13555.01425922087,5313.702561104603,-29300.052440172727,-36142.34610108687,-37935.02306163586,-40351.31369248792,-29361.296219980268,-39858.27891329276
13591.3581957052,5297.408139396684,-29300.611233784108,-36164.78725252,-37726.7048033124,-40363.920076360715,-29261.69684668742,-39806.40051441199
13726.072159537336,5232.386914776196,-29396.76843843084,-36274.288448606545,-37618.41060142644,-40462.17834498624,-29281.500492274823,-39855.529648724754
13713.66694136464,5238.734810201503,-29411.408831049066,-36267.091186891936,-37815.48593228888,-40468.03450203354,-29389.638231949597,-39911.96780347441
13587.647806125618,5317.994096040023,-29304.455733830422,-36141.452031308654,-37939.22518959346,-40353.526515189,-29373.142644541582,-39856.93780862544
13592.341672461233,5331.025163057467,-29275.59963173862,-36127.59394974637,-37757.23728623835,-40336.94152080316,-29262.03212285425,-39794.17411019494
13711.297656452378,5248.480170784017,-29385.86078713665,-36255.334169308444,-37612.86736880152,-40450.130754724836,-29266.234250811845,-39850.4558027334
13716.438557677098,5226.754275173459,-29426.473906811945,-36279.20583238672,-37776.54919344773,-40486.25117376461,-29374.595507931175,-39924.90946351403
13581.657538611596,5291.037892226922,-29328.66267307552,-36166.977723476615,-37943.024986150864,-40387.72468420562,-29388.990031360394,-39889.95133518593
13566.72657331545,5338.512997449994,-29275.487873016344,-36119.234397320084,-37801.20316758194,-40336.874465569796,-29282.08163763066,-39815.81059882767
13705.24033370499,5283.214781667564,-29352.243763475868,-36220.48779970262,-37607.77117106571,-40429.52244633704,-29243.16725053397,-39833.82610485865
13735.795168375394,5233.75037118797,-29417.041470651802,-36281.44100683225,-37719.395782875516,-40486.13941504234,-29342.699568593453,-39909.55381507323
13601.617646410186,5274.89993273019,-29350.768548341817,-36194.26920345655,-37933.83841917973,-40405.96370768115,-29400.903511155073,-39902.445960336445
13566.480704126443,5335.450808459617,-29268.46942525738,-36117.826237419395,-37839.89403723407,-40324.53630263046,-29303.00287044083,-39816.90583430599
13679.066440947825,5286.209915424575,-29342.766623826818,-36213.335241476925,-37632.38044171101,-40405.3378588364,-29252.711445416386,-39824.3489652096
13742.76891264545,5231.068161853334,-29428.686729513018,-36285.352562111926,-37702.43080883394,-40489.603935432904,-29346.633475617586,-39909.24089065086
13642.767207952405,5273.201200151587,-29362.61497290313,-36201.13118900433,-37917.0522590938,-40414.56912929644,-29406.37968854662,-39905.12816967108
13565.363116903678,5335.696677648625,-29267.865928157084,-36107.05269659194,-37879.68014236452,-40324.133971230265,-29322.94062649496,-39815.140046494016
13655.84297845876,5290.166174193165,-29314.64812930204,-36178.667685826746,-37655.46979373333,-40395.659553487254,-29249.962180848383,-39809.55211038019
13750.972002860548,5229.324725785819,-29410.581816504222,-36278.40116958632,-37655.26862803324,-40474.449452692206,-29315.162219424514,-39891.828881720176
13664.046068673859,5255.431563309618,-29390.398191261076,-36233.98825335363,-37890.76660761435,-40440.6983185647,-29406.647909480085,-39913.59948081964
13564.223177936457,5320.855119330302,-29282.439265541943,-36119.14499034226,-37912.55955845828,-40330.012480022015,-29341.38081567059,-39824.572482654155
13639.235632328468,5310.193337225121,-29293.32456509168,-36149.45395582366,-37677.083930621615,-40352.00659656603,-29237.311093486678,-39781.65713329997
13740.869014366748,5229.883519397202,-29402.177560589025,-36272.90264045032,-37624.60203464056,-40468.03450203354,-29287.110780133105,-39861.49756449432
13685.2802259064,5241.506426513962,-29401.328194299724,-36250.55089599501,-37851.382833884105,-40460.814888574474,-29393.14745582908,-39921.57905359019
13581.12109674467,5328.119436278276,-29285.903785932518,-36121.29075780997,-37923.84718940821,-40339.33315745988,-29350.09799600816,-39848.84647713262
13618.269696029389,5319.1787384961535,-29274.996134638328,-36128.21979859112,-37708.10815192558,-40341.5236284165,-29235.41119520798,-39788.60852582556
13719.299580967378,5220.316972770331,-29397.751915186873,-36265.41480605779,-37612.44268565687,-40466.62634213285,-29270.54813749172,-39855.75316616931
13695.450269633564,5212.560917444339,-29423.88110445513,-36275.51779455159,-37813.51897877681,-40481.60201091791,-29384.5867377027,-39917.04164946576
13582.573960134265,5299.442148142118,-29315.922178735997,-36147.95638894515,-37945.684843741044,-40362.578971693394,-29371.66742940753,-39860.22351506037
13595.515620173886,5321.860947830791,-29275.957259649906,-36122.74362119957,-37761.17119326248,-40327.86671255431,-29255.907744873497,-39785.05459845717
13716.393854188187,5241.260557324953,-29375.869557365128,-36241.990177868625,-37608.01704025472,-40437.85964701887,-29253.560811705687,-39830.07101179016
13722.76410135795,5213.723208156015,-29420.684804998018,-36278.08824516395,-37764.8145276087,-40477.42223470476,-29359.865708335128,-39898.93673645696
13595.806192851805,5278.342101376307,-29332.12719346609,-36171.045740967485,-37946.22128560797,-40389.5351755065,-29386.508987725854,-39867.33136979716
13576.561340875787,5318.619944884771,-29280.069980629683,-36120.03906012047,-37819.17397012401,-40340.0707650269,-29287.17783536647,-39798.845624786096
13702.960455770548,5271.413060595162,-29354.00955128784,-36203.88045357233,-37614.61080486904,-40406.790722226,-29244.664817412475,-39815.31886044966
13740.801959133383,5230.151740330665,-29420.10365964218,-36269.92985843776,-37724.89431201152,-40471.990760802124,-29342.43134765999,-39890.57718403068
13625.846937399738,5284.689996801615,-29346.409958173033,-36174.040874724495,-37938.353471559705,-40392.35149530786,-29392.476903495422,-39878.44018679144
13577.142486231623,5335.406104970706,-29263.5073379883,-36099.11782731031,-37847.71714779343,-40317.7637240605,-29292.922233691483,-39794.26351717276
13690.175257942112,5282.9018572451905,-29323.74528929535,-36188.56950862044,-37622.143342750474,-40389.11049236185,-29228.750375360298,-39794.68820031741
13756.33642152982,5228.832987407803,-29415.789772962307,-36279.47405332018,-37680.61550624556,-40477.310475982486,-29321.063079960717,-39880.80947170371
13645.896452176148,5269.446107083096,-29371.62272591862,-36199.07482851444,-37919.15332307259,-40419.17358865423,-29404.569197245743,-39897.66268702301
13562.546797102308,5332.589785169338,-29269.94464039143,-36097.75437089853,-37886.184500001014,-40322.23407295156,-29320.45958286042,-39815.78824708322
13660.961527939025,5297.899877774701,-29305.349803608635,-36160.04868269547,-37653.50284022127,-40375.92296313321,-29238.78630862073,-39805.37233416705
13757.2975465414,5228.31889728533,-29413.308729327768,-36284.637306289354,-37655.38038675552,-40487.32405749847,-29316.257454902825,-39882.597611260135
13663.375516340198,5246.602624249772,-29397.886025653606,-36232.64714868631,-37899.08145655173,-40454.55640012698,-29417.756726474374,-39914.73941978686
13563.127942458146,5312.540270392928,-29288.85421620062,-36120.284929309484,-37927.088192354226,-40352.855962855334,-29357.138795511582,-39841.11277355108
13640.867309673706,5299.5762586088495,-29298.08548666066,-36151.24209538008,-37693.42305581845,-40367.071672328915,-29250.54332620422,-39797.97390675234
13746.971040603048,5227.201310062565,-29398.087191353705,-36267.717035736685,-37628.155962008954,-40472.88483058033,-29285.926137676972,-39862.03400636125
13683.022699716414,5228.475359496518,-29400.501179754876,-36253.680140218756,-37851.04755771728,-40461.84306881941,-29390.621708705632,-39908.74915227284
13566.480704126443,5299.911534775679,-29296.923195948984,-36120.73196419859,-37939.113430871184,-40356.34283499036,-29361.72090312492,-39843.97379684136
13611.899448859627,5310.059226758388,-29283.489797531343,-36126.923397412706,-37732.806829548696,-40351.24663725455,-29254.656047184,-39791.17897643793
13737.583307931818,5237.7066299565595,-29379.24467077788,-36240.02322435656,-37610.52043563371,-40455.13754548282,-29264.200242066414,-39842.185657284936
13722.384121702209,5228.832987407803,-29393.125104084625,-36232.69185217522,-37796.28578380177,-40464.74879559861,-29364.939554326484,-39900.03197193527
13600.276541742867,5311.892069803724,-29292.94458543594,-36113.95938562863,-37934.53132325785,-40359.11445130283,-29362.972600814417,-39853.74150916833
13604.188097022547,5329.48289269005,-29255.46070998439,-36089.64068766125,-37754.555076903715,-40317.003764749024,-29243.16725053397,-39763.93219994691
13727.122691526734,5247.317880072342,-29362.413807203033,-36220.398392724805,-37599.25515642824,-40431.04236496,-29239.12158478756,-39806.109941734074
13729.022589805436,5207.844699364269,-29427.077403912237,-36273.260268361606,-37771.02831256727,-40493.3590285014,-29370.639249162585,-39898.400294590036
13609.440756969543,5285.829935768836,-29325.399318385043,-36146.10119415536,-37948.2552943534,-40378.91809689022,-29389.48176973841,-39863.19629707293
13574.169704219068,5321.324505963863,-29270.145806091525,-36102.448237234144,-37818.05638290124,-40323.35166017433,-29285.389695810045,-39788.38500838101
13692.253970176456,5263.0088046799665,-29356.825871089208,-36206.71912511815,-37625.89843581896,-40423.554530567475,-29256.801814651706,-39814.089514504616
13743.797092890394,5226.5531094733615,-29420.30482534228,-36270.26513460459,-37726.14600970102,-40482.764301629584,-29352.422577431513,-39886.48681479535
13630.3172862908,5282.991264223011,-29343.66069360503,-36164.51903158653,-37935.42539303606,-40387.16589059423,-29403.406906534066,-39871.64525647703
13588.363061948188,5348.660689432703,-29253.761977405786,-36079.113016022806,-37853.21567692944,-40310.41000013471,-29305.819190242197,-39786.8427380136
13701.641702847684,5296.71523531857,-29315.18457116897,-36165.59191532039,-37634.41445045644,-40394.58666975339,-29246.475308713354,-39797.32570616314
13772.317918815366,5235.0020688774675,-29405.15034260158,-36257.61404724289,-37690.60673601708,-40487.525223198565,-29338.542144124767,-39894.42168407699
13673.210283900535,5278.722081032048,-29354.300123965757,-36183.51801437354,-37914.45945673698,-40417.5866147979,-29406.089115868705,-39890.353666586125
13586.574922391765,5335.651974159715,-29261.22746005386,-36074.508556665016,-37893.82879660473,-40317.47315138258,-29330.495516120856,-39797.079836974124
13681.301615393355,5305.968857523067,-29300.052440172727,-36139.44037430768,-37665.483375249314,-40370.31267527493,-29247.391730236024,-39781.12069143304
13775.782439205937,5235.024420621922,-29408.659566481063,-36257.83756468744,-37660.90126763598,-40479.2550777501,-29319.18553342647,-39870.12533785407
13696.634912089696,5263.835819224813,-29378.775284144318,-36204.819226839456,-37882.47411042143,-40441.21240868716,-29403.09398211169,-39893.37115208759
13591.02291953837,5344.369154497284,-29265.451939755912,-36078.53187066697,-37915.73350617093,-40313.449837380635,-29337.08928073517,-39809.619165613556
13650.098580133747,5327.471235689072,-29284.719143476384,-36124.420002033716,-37695.83704421962,-40353.437108211176,-29244.106023801094,-39779.80193851017
13764.740677445017,5254.403383064674,-29389.794694160784,-36246.3040645485,-37627.50776141975,-40468.61564738937,-29287.80368421122,-39855.060262091196
13717.399682688676,5260.9524441900785,-29383.446798735476,-36222.11947704786,-37837.79297325527,-40454.69051059372,-29383.133874313102,-39888.23025086287
13603.07050979978,5334.154407281209,-29279.690000973944,-36100.347173255344,-37935.961834902984,-40344.11643077331,-29360.893888580074,-39831.412116457475
13633.915917148104,5329.237023501042,-29269.251736313312,-36106.650365191745,-37733.49973362681,-40339.33315745988,-29256.377131507055,-39780.62895305502
13752.938956372614,5243.94276665959,-29387.157188315057,-36242.16899182427,-37624.15499975145,-40461.59719963041,-29282.84159694214,-39846.83482013164
13738.119749798745,5233.616260721238,-29414.82864795073,-36254.864782674886,-37818.659880001534,-40475.991723059626,-29397.39428727559,-39905.32933537118
13611.385358737154,5313.747264593514,-29303.271091374292,-36116.41807751871,-37958.537096802844,-40348.273855242,-29384.944365613985,-39836.038927559726
13615.3639692502,5339.094142805832,-29258.768768163776,-36082.91281258021,-37782.13712956156,-40309.22535767858,-29269.765826435785,-39758.14309813298
13742.38893298971,5265.914531459157,-29355.909449566538,-36204.662764628265,-37616.39894442546,-40420.17941715472,-29261.27216354277,-39808.7474475798
13754.570633717853,5240.65706022466,-29408.145476358593,-36248.159259338296,-37765.261562497806,-40467.587467144425,-29371.130987540604,-39888.185547373956
13628.953829879027,5306.1476714787095,-29321.778335783285,-36138.83687720739,-37953.95498918951,-40375.76650092203,-29400.322365799235,-39865.09619535162
13604.255152255912,5349.755924911014,-29256.824166396163,-36077.12371076628,-37828.67346151751,-40319.30599442792,-29294.88918720355,-39787.870918258544
13725.491014181498,5288.087461958821,-29337.245742946357,-36181.68517132821,-37627.77598235321,-40413.74211475159,-29254.164308805983,-39806.57932836763
13768.696936213606,5230.46466475304,-29409.2407118369,-36257.301122820514,-37728.55999810219,-40486.78761563154,-29353.450757676455,-39883.06699789369
13651.03735340087,5280.443165355106,-29343.213658715926,-36169.95050548917,-37945.41662280758,-40406.1872251257,-29412.168790360545,-39879.35660831411
13582.462201411987,5328.342953722829,-29264.960201377893,-36093.8204638744,-37871.45470040497,-40331.97943353408,-29321.152486938536,-39804.92529927794
13689.795278286372,5274.028214696434,-29328.640321331066,-36183.22744169563,-37653.458136732355,-40413.11626590684,-29260.311038531192,-39811.04967725869
13755.375296518243,5206.972981330512,-29433.581761548732,-36287.855957490916,-37708.555186814694,-40506.97124087468,-29352.556687898243,-39889.50430029682
13662.347336095256,5255.096287142788,-29379.110560311146,-36209.915424575265,-37933.726660457454,-40436.540894096004,-29426.429203323034,-39897.908556212016
13589.100669515214,5329.617003156782,-29267.955335134906,-36095.85447261983,-37903.08241880923,-40327.710250343116,-29332.104841721637,-39807.0487150012
13674.171408912112,5293.340121905819,-29304.053402430225,-36152.33733085839,-37670.110186351565,-40377.01819861153,-29242.78727087823,-39787.82621476963
13763.936014644625,5226.0837228397995,-29415.610959006663,-36263.51490777909,-37664.34343628209,-40487.21229877619,-29314.4693153464,-39872.29345706623
13690.801106786861,5260.3042436008745,-29395.47203725243,-36213.961090321674,-37899.86376760766,-40443.112306965864,-29409.888912426104,-39893.013524176306
13589.92768406006,5340.994041084533,-29274.906727660506,-36084.969173070094,-37930.88798891163,-40317.74137231605,-29346.09703375066,-39804.92529927794
13649.316269077812,5313.680209360148,-29293.056344158216,-36127.839818935376,-37715.84185550712,-40354.21941926711,-29254.11960531707,-39776.06919718614
13759.465665753563,5232.0739903538215,-29408.34664205869,-36259.73746296614,-37656.900305378476,-40475.567039914975,-29310.647167044543,-39857.09427083663
13716.058578021357,5237.192539834087,-29401.797580933286,-36232.58009345295,-37865.10680497966,-40457.19390597271,-29412.504066527377,-39896.65685852252
13611.295951759334,5329.684058390148,-29286.239062099346,-36101.17418780019,-37959.386463092145,-40335.84628532485,-29379.49053996689,-39827.098229777606
13656.066495903313,5354.5168464799945,-29260.82512865366,-36096.99441158705,-37750.12943150156,-40320.37887816178,-29260.489852486833,-39762.45698481286
13776.341232817322,5281.069014199855,-29358.457548434446,-36214.00579381058,-37615.14724673596,-40433.00931847207,-29269.184681079947,-39817.084648261625
13753.274232539445,5249.821275451336,-29394.957947129962,-36249.14273609433,-37805.09237111716,-40461.664254863776,-29385.927842370016,-39886.21859386189
13623.343542020744,5312.361456437285,-29301.639414029054,-36137.04873765096,-37961.01814043739,-40367.18343105119,-29388.453589493467,-39846.656006175996
13615.11810006119,5333.081523547355,-29268.804701424207,-36112.1265425833,-37798.67742045849,-40335.44395392465,-29279.578242251664,-39784.76402577925
13740.53373819992,5264.0593366693665,-29348.019283773814,-36214.944567077706,-37615.68368860289,-40433.23283591662,-29248.576372692154,-39814.2459767158
13745.67463942464,5213.767911644925,-29403.697479211987,-36273.79671022853,-37755.873829826574,-40495.61655469138,-29354.43423443249,-39897.32741085618
13617.085053573259,5272.5753513068385,-29326.04751897425,-36161.12156642933,-37953.77617523386,-40391.747998207575,-29390.2864325388,-39879.20014610293
13581.568131633776,5310.0815785028435,-29260.22163155337,-36106.784475658475,-37833.479086575404,-40335.108677757824,-29284.22740509837,-39810.26736620276
13698.646569090673,5246.736734716504,-29341.112594737126,-36215.12338103335,-37625.78667709669,-40427.28727189151,-29239.792137121218,-39831.85915134659
13739.751427143983,5186.297617709353,-29424.43989806651,-36291.81221625951,-37724.067297466674,-40504.62430770687,-29337.648074346554,-39904.34585861515
13625.064626343803,5233.862129910246,-29353.495461165367,-36191.028200510525,-37937.146477359114,-40401.582765767904,-29379.982278344905,-39884.09517813864
13557.987041233426,5296.201145196098,-29271.576317736664,-36107.9244146257,-37867.63255210311,-40316.78024730447,-29285.27793708777,-39798.77856955273
13657.876987204194,5252.011746407956,-29338.13981272457,-36201.13118900433,-37648.428994229915,-40393.08910287489,-29226.49284917031,-39807.4957498903
13738.611488176763,5189.829193333291,-29432.084194670224,-36293.91328023831,-37689.48914879432,-40485.20064177521,-29310.08837343316,-39902.33420161417
13640.4202747846,5225.1449495726765,-29388.542996471286,-36224.84638987141,-37917.02990734934,-40428.87424574784,-29386.106656325657,-39928.731611815885
13546.900575983595,5282.7900985229135,-29293.481027302867,-36129.940882914176,-37911.151398557595,-40336.31567195841,-29312.70352753443,-39852.48981147883
13633.625344470185,5249.3295370733185,-29326.740423052364,-36191.92227028874,-37681.88955567951,-40378.113434089835,-29223.989453791317,-39819.23041572934
13738.455025965575,5183.101318252244,-29427.39032833461,-36302.18342568677,-37658.710796679356,-40461.217219974664,-29274.683210215953,-39865.386768029544
13677.792391513873,5218.551184958361,-29402.959871644962,-36254.373044296866,-37886.40801744557,-40426.92964398023,-29366.548879927264,-39894.10875965461
13580.45054441101,5307.28761044593,-29293.592786025143,-36134.746507972064,-37936.76649770338,-40317.89783452724,-29319.40905087102,-39829.44516294541
13652.758437723927,5306.617058112271,-29292.45284705792,-36145.028310421505,-37708.8010560037,-40324.268081697,-29215.16051473147,-39776.06919718614
13768.741639702517,5230.46466475304,-29398.668336709543,-36273.528489295066,-37631.709889377344,-40433.3445946389,-29254.2537157838,-39846.588950942634
13716.885592566205,5221.36750475973,-29410.760630459863,-36268.38758807035,-37848.432403616,-40437.390260385306,-29365.47599619341,-39908.27976563928
13615.386320994654,5305.655933100693,-29306.534446064765,-36153.05258668096,-37955.63137002366,-40334.773401590995,-29345.448833161456,-39853.69680567942
13677.99355721397,5338.356535238807,-29279.690000973944,-36143.66485400973,-37751.00114953532,-40316.444971137644,-29232.43841319542,-39794.73290380632
13802.58218080785,5276.285740886419,-29377.545938199277,-36261.32443682247,-37614.90137754696,-40433.16578068326,-29238.965122576374,-39852.62392194557
13763.86895941126,5253.688127242104,-29408.100772869682,-36282.7150562662,-37794.38588552307,-40451.650673347795,-29348.354559940646,-39918.69567855545
13633.513585747909,5323.313811220385,-29307.160294909514,-36175.024351480526,-37948.43410830905,-40348.13974477527,-29349.986237285884,-39870.572372743176
13647.215205099012,5362.652881461726,-29274.012657882293,-36154.77367100402,-37802.67838271599,-40345.56929416291,-29254.49958497281,-39815.56472963867
13804.236209897545,5327.404180455706,-29349.650961119052,-36244.381814525346,-37610.00634551124,-40413.42919032922,-29221.843686323606,-39839.72696539485
13820.709445561106,5281.583104322327,-29411.386479304612,-36297.04252446205,-37748.16247798949,-40458.53501064003,-29330.71903356541,-39916.43815236547
13709.777737829416,5354.785067413458,-29327.142754452558,-36189.128302231824,-37943.4049658066,-40368.79275665197,-29361.72090312492,-39890.420721819486
13696.545505111875,5426.1318357147975,-29253.89608787252,-36123.5259322555,-37826.907673705544,-40302.09515119733,-29254.857212884097,-39806.467569645356
13831.326524177377,5387.418614318206,-29327.366271897114,-36220.24193051361,-37617.20360722585,-40388.37288479482,-29209.5949303621,-39817.66579361747
13891.206847573143,5340.301137006419,-29404.993880390393,-36286.47014933469,-37704.86714897957,-40462.96065604218,-29307.07088793169,-39899.69669576844
13794.602608037307,5409.368027373317,-29330.830792287685,-36190.44705515469,-37917.63340444963,-40378.85104165686,-29357.585830400687,-39885.592745017144
13744.400589990688,5481.0724235859425,-29247.45878546939,-36109.75725767103,-37857.30604616476,-40295.16611041619,-29268.51412874629,-39798.2421276858
13853.700620377138,5437.486521898094,-29307.629681543076,-36192.570470877945,-37640.36001448155,-40370.491489230575,-29205.459857637867,-39799.44912188639
13953.47880762563,5394.839393477368,-29396.54492098629,-36284.011457444605,-37666.35509328307,-40460.92664729675,-29284.69679173193,-39881.07769263717
13864.02712631549,5434.692553841181,-29366.548879927264,-36236.335186521435,-37905.71992465496,-40420.402934599275,-29379.736409155896,-39914.18062617548
13795.340215604332,5527.921679964266,-29255.013675095284,-36108.818484403906,-37901.54014844181,-40305.604375076815,-29297.929024449473,-39814.581252882635
13896.012472631035,5522.467854317171,-29273.878547415563,-36141.76495573103,-37661.88474439201,-40333.3205382014,-29195.6921453109,-39768.49195581579
14019.483509002152,5473.562237448959,-29371.846243363172,-36256.65292223131,-37632.7827731112,-40435.11038245087,-29255.7065791734,-39847.48302072084
13960.184330962222,5505.3687698088615,-29351.416748931024,-36210.40716295328,-37857.57426709822,-40402.54389077948,-29350.120347752614,-39882.307038582214
13858.662707646217,5590.9535993282325,-29243.36841623407,-36087.13729228226,-37916.8510933937,-40289.041732435435,-29303.293443118746,-39802.91364227696
13941.677086553227,5602.934134356276,-29232.70663412889,-36104.7728186575,-37687.47749179334,-40303.83858726485,-29192.674659809432,-39751.81755445213
14069.819637515502,5533.084932933442,-29340.3749871701,-36228.46737247317,-37600.41744713992,-40416.04434443049,-29228.325692215647,-39825.01951754326
14031.374637052375,5534.76131376759,-29353.204888487446,-36223.326471248445,-37814.23423459938,-40420.15706541027,-29339.36915866961,-39886.0621316507
13917.604257774861,5623.050704366053,-29238.741605131818,-36091.38412372877,-37919.35448877269,-40297.513043584,-29306.75796350932,-39817.375220939546
13957.390362905307,5654.387850092394,-29210.801924562686,-36075.08970202085,-37722.5026753548,-40275.09424389532,-29190.886520253007,-39746.6319497385
14099.726271596703,5603.939962856765,-29306.959129209416,-36196.66084011327,-37579.60797305202,-40388.32818130591,-29189.813636519153,-39795.001124739785
14091.143201725865,5585.924456825788,-29353.674275121008,-36225.02520382705,-37764.702768886425,-40421.63228054432,-29313.150562423536,-39875.55681175671
13977.395174192809,5672.626873567924,-29251.236230282335,-36094.982754586075,-37925.210645819985,-40309.73944780105,-29323.164143939513,-39832.23913100232
13984.793601607515,5719.0961502905075,-29190.48418885281,-36042.6573208162,-37755.98558854885,-40254.3518250408,-29204.87871228203,-39746.140211360485
14113.405539203352,5652.30913785805,-29286.149655121524,-36164.317865886434,-37579.227993396285,-40373.7324921766,-29187.39964811798,-39795.96224975136
14155.024487379133,5637.959317917743,-29332.730690566386,-36188.12247373134,-37704.37541060155,-40403.95205068017,-29282.618079497588,-39859.865887149084
14032.536927764051,5705.372179194949,-29252.309114016192,-36083.56101316941,-37899.28262225183,-40303.63742156475,-29315.788068269263,-39825.53360766573
13983.631310895838,5741.067915090074,-29193.25580516527,-36032.17435266666,-37798.185682080475,-40250.88730465023,-29219.11677350006,-39747.77188870572
14100.486230908184,5680.651149827379,-29272.023352625773,-36139.88740919679,-37588.28044990068,-40340.67426212719,-29171.954592699363,-39755.885571943
14151.671725710838,5625.308230556039,-29360.5809641577,-36227.68506141723,-37678.87207017804,-40428.98600447011,-29278.12537886207,-39850.4558027334
14045.366829081397,5679.98059749372,-29291.93875693545,-36127.88452242428,-37893.91820358255,-40348.63148315329,-29331.344882410158,-39842.20800902939
13974.28828171352,5730.964926596275,-29213.662947852965,-36051.68742557614,-37852.36631064014,-40266.71233972458,-29256.13126231805,-39764.75921449175
14090.495001136662,5703.22641172724,-29253.985494850338,-36108.21498730362,-37622.143342750474,-40313.3157269139,-29181.767008515242,-39749.31415907314
14177.644452767903,5643.234329609195,-29343.86185930513,-36198.44897966969,-37638.571874925125,-40404.71200999165,-29256.667704184976,-39825.265386732266
14076.659271318827,5667.083640943008,-29313.08350719017,-36150.79506049098,-37879.65779062007,-40367.474003729105,-29348.42161517401,-39853.76386091278
13991.610883666383,5747.5052174932025,-29203.53760761471,-36038.29873064742,-37879.769549342345,-40265.572400757366,-29276.180777094458,-39766.457947070354
14076.033422474078,5725.689914904823,-29228.41509919347,-36089.104245794326,-37647.177296540416,-40287.94649695713,-29184.02453470523,-39733.265606554225
14181.399545836395,5656.35480360446,-29330.51786786531,-36199.700677359186,-37605.40188615345,-40392.19503309668,-29237.82518360915,-39806.08758998961
14113.003207803156,5670.816382267044,-29317.03976595876,-36164.51903158653,-37834.931949964994,-40373.844250898874,-29338.162164469024,-39852.73568066784
14011.81686065398,5756.736487953244,-29196.340345900102,-36031.280282888445,-37889.15728201357,-40244.69587143611,-29282.908652175505,-39768.82723198262
14070.199617171244,5753.070801862575,-29192.741715042797,-36046.32300690687,-37667.29386655019,-40251.73667093953,-29174.54739505618,-39712.299670255146
14185.71343251627,5676.761946292156,-29302.444076829444,-36169.34700838888,-37579.96560096331,-40372.793718909474,-29207.940901272406,-39785.81455776865
14142.194586061787,5668.715318288246,-29322.33712939467,-36177.8406712819,-37794.85527215663,-40390.47394877362,-29324.237027673367,-39854.70263417991
14020.668151458283,5746.432333759348,-29214.266444953257,-36060.38225416926,-37908.80446538979,-40288.6617527797,-29307.629681543076,-39802.77953181023
14047.669058760293,5762.726755467267,-29184.560976572157,-36040.444498115125,-37713.025535705754,-40260.92323791066,-29197.10030521158,-39735.6795949554
14174.068173655054,5686.909638274866,-29290.28472784576,-36162.77559551902,-37572.857746226524,-40384.70719870415,-29204.7446018153,-39792.743598549794
14158.310193814063,5651.526826802115,-29340.397338914558,-36192.704581344675,-37757.32669321617,-40408.40004782678,-29322.69475730595,-39864.135070340046
14034.749750465126,5722.963002081276,-29240.194468521415,-36075.29086772095,-37919.10861958368,-40301.22343316358,-29324.974635240393,-39818.09047676212
14030.815843440992,5758.1893513428395,-29180.224738147826,-36030.095640432315,-37753.61630363659,-40256.38583378623,-29207.739735572308,-39737.803010678654
14160.523016515139,5695.716225590257,-29265.496643244824,-36136.69110973967,-37565.88400195647,-40354.01825356701,-29182.97400271583,-39773.56580180714
