Fp1,Fp2,C3,C4,P7,P8,O1,O2
14293.851172191045,5003.974438187413,-26550.944334381144,-33590.78271279129,-38237.66568156072,-37233.53591365051,-26501.77049657947,-35410.43822889784
14235.133139506954,5072.951921576491,-26454.69772275659,-33491.45156043191,-38241.532533351485,-37141.312616027906,-26450.24972560999,-35335.58223671702
14280.171904584397,5041.413610150053,-26471.930917731635,-33535.14922084203,-38012.85183582924,-37174.01321816602,-26332.41132884161,-35290.20819547274
14333.726684299314,4961.617882444606,-26568.088122378365,-33631.32877723322,-37976.97728597847,-37266.08005357743,-26370.185776971077,-35357.509298027675
14290.319596567108,4974.671301206506,-26565.54002351046,-33596.19183494947,-38199.06421888641,-37240.733175365116,-26494.99791800951,-35403.46448462778
14216.111804975488,5038.641993837595,-26466.074760684343,-33496.01131630079,-38274.747225612075,-37149.18043007618,-26486.638365583225,-35343.83003042103
14238.418845941884,5015.932621471003,-26471.930917731635,-33513.33391825365,-38058.449394518066,-37156.35534004633,-26355.053645974833,-35281.78158781309
14299.59557051606,4932.873539075082,-26565.696485721648,-33615.21316948094,-37946.51185828589,-37246.83520160141,-26340.01092195641,-35327.06622207954
14259.407133985416,4918.300201690221,-26582.616756274314,-33604.79725656477,-38152.66199739719,-37252.244323759594,-26463.660772283172,-35393.11562694498
14162.065286882555,4970.98326337138,-26482.1009614588,-33498.64882214652,-38268.1311092533,-37156.84707842435,-26471.461531098073,-35344.1429548434
14150.978821632723,4956.387574242065,-26459.43629258112,-33497.777104112756,-38092.89343272369,-37142.89958988423,-26361.937983267067,-35282.58625061348
14214.614238096981,4879.855201227093,-26555.951125139134,-33603.478503641905,-37945.818954207774,-37234.25116947308,-26334.579448053773,-35319.98071908721
14202.946627491312,4855.380041048532,-26598.821771004412,-33624.444439940984,-38114.865197523264,-37269.164594312264,-26460.08449317032,-35402.726877060755
14104.978931543701,4900.552916592707,-26507.649005371215,-33528.466049249895,-38283.03972280499,-37181.65751476974,-26501.43522041264,-35376.75415000369
14069.551416582039,4903.436291627442,-26478.32351664585,-33498.62647040206,-38146.381157205244,-37148.442822509154,-26395.93498658359,-35303.30631772355
14129.543498700083,4824.266412766745,-26554.118282093797,-33605.69132634298,-37954.64789326762,-37235.52521890703,-26336.79227075485,-35320.18188478731
14124.134376541899,4767.89531325046,-26618.021919491523,-33656.56389672326,-38077.336618582805,-37289.37057129986,-26444.885306940712,-35403.352725905504
14035.666171987794,4816.5997644185745,-26555.68290420567,-33560.04906416524,-38282.212708260144,-37210.04423022798,-26519.42837469916,-35395.30609790159
13993.309616244987,4839.867930396549,-26505.704403603602,-33514.25033977632,-38201.835835198865,-37154.58955223436,-26432.36833004574,-35318.81842837553
14058.867282732403,4779.920551767415,-26543.836479644357,-33594.8283785377,-37986.70029481653,-37223.32116643443,-26345.35298888123,-35314.19161727329
14092.037271504078,4730.299679076634,-26622.715785827135,-33658.642608957605,-38050.827449658806,-37288.20828058819,-26426.266303809443,-35393.026219967156
14019.639971213339,4773.259731919734,-26569.004543901032,-33575.76234051733,-38267.90759180875,-37220.84012279989,-26516.18737175314,-35400.6034613375
13966.062839753968,4818.678476652918,-26491.10871447429,-33500.2581477473,-38226.512161077524,-37143.8160114069,-26443.23127785102,-35320.49480920968
14023.43976777074,4774.198505186857,-26537.689749919147,-33568.00628519133,-38005.60987062572,-37195.69441028767,-26344.324808636287,-35297.65132637636
14085.823486545503,4722.7447894507395,-26613.26099792254,-33651.06536758725,-38013.43298118508,-37276.40655951578,-26406.060326821844,-35371.65795226788
14041.119997634889,4771.628054574497,-26582.750866741048,-33601.42214315202,-38233.68707104767,-37234.87701831782,-26510.331214705853,-35405.07381022857
13986.157058019287,4846.171122332946,-26505.972624537066,-33512.88688336455,-38257.42462365921,-37152.46613651111,-26465.963001962067,-35335.962216372754
14038.080160388967,4822.567680188141,-26518.221380498577,-33556.53984028576,-38031.20261802705,-37183.199785137156,-26353.287858162865,-35294.432675174794
14119.060530550543,4765.36956612701,-26597.100686681355,-33652.361768765666,-37976.41849236709,-37270.61745770186,-26378.366515441718,-35352.65896948087
14082.470724877207,4782.3792436574995,-26591.177474400698,-33624.64560564108,-38193.5656897504,-37259.8439168744,-26498.373031422263,-35406.660784084896
14023.909154404302,4864.410145808476,-26510.219455983577,-33525.06858409269,-38283.59851641637,-37169.11818613031,-26495.24378719852,-35354.11183287047
14070.445486360251,4876.01070118078,-26496.67429884366,-33534.344558041645,-38069.44645279008,-37166.03364539548,-26364.68724783507,-35286.45310240425
14153.929251900823,4814.766921373239,-26581.96855568511,-33641.029434326825,-37956.458384568505,-37261.43089073073,-26355.970067497503,-35333.32471052703
14138.238327293198,4815.348066729077,-26597.614776803828,-33640.98473083791,-38159.613389922786,-37274.819585659454,-26485.230205682543,-35405.34203116203
14072.121867194399,4897.982465980347,-26504.162133236186,-33529.47187775039,-38288.89587985228,-37176.471910056105,-26501.502275646006,-35362.44903355229
14090.0256145031,4918.657829601506,-26483.062086470378,-33519.368889256584,-38113.43468587812,-37164.26785758351,-26388.961242313533,-35297.49486416517
14175.766906233659,4855.558855004175,-26565.36120955482,-33627.55133242027,-37956.97247469097,-37259.28512326302,-26352.84082327376,-35329.45785873626
14185.311101116074,4847.109895600069,-26601.50398033905,-33649.29957977529,-38113.16646494466,-37288.96823989967,-26466.119464173255,-35401.966917749276
14112.623228147415,4929.766646595794,-26516.746165364526,-33543.79934594624,-38284.269068750036,-37199.69537254517,-26512.700499618113,-35377.08942617052
14107.258809478142,4957.527513209286,-26473.60729856578,-33510.092915307636,-38151.566761918875,-37157.249409824544,-26407.42378323362,-35298.12071300992
14195.235275654231,4899.100053203113,-26543.612962199804,-33607.61357636614,-37954.13380314515,-37236.32988170742,-26339.45212834503,-35304.84858809097
14230.483976660249,4880.615160538574,-26594.48553258008,-33641.47646921593,-38069.11117662325,-37288.29768756601,-26439.31972257134,-35385.62779255245
14161.305327571074,4946.061068303713,-26525.19512476863,-33550.773090216295,-38268.444033675674,-37215.1851314527,-26515.852095586313,-35380.62100179446
14137.277202281619,4989.222286846911,-26467.348810118296,-33494.91608082248,-38184.93791639065,-37153.82959292288,-26427.22742882102,-35301.54052991158
14215.776528808658,4939.8696350895925,-26522.691729389637,-33578.46690159642,-37973.24454465444,-37221.913006533745,-26345.576506325782,-35296.31022170904
14265.509160221716,4898.474204358364,-26584.583709786384,-33644.04691982829,-38026.55345518034,-37289.1023503664,-26426.55687648736,-35373.177870890846
14204.064214714077,4954.577082941185,-26540.72958716507,-33569.95088695895,-38247.92513226571,-37228.28325370351,-26524.39046196824,-35389.56169957658
14156.1420746019,5012.333990613698,-26477.96588873457,-33486.936508051935,-38225.01459419901,-37150.14155508776,-26458.363408847265,-35311.82233236102
14222.951438778811,4977.264103563321,-26510.375918194764,-33551.71186348341,-37994.99279200945,-37197.862529499835,-26348.88456450517,-35283.34620992497
14286.273930820696,4927.889100061548,-26576.984116671578,-33633.42984121202,-37985.739169804954,-37280.631039217835,-26396.583187172793,-35349.57442874604
14231.86978481648,4960.276777777288,-26557.940430395658,-33585.91003250003,-38227.54034132246,-37244.488268433604,-26523.138764278745,-35392.735647289235
14175.275167855641,5034.216348435444,-26461.29148737091,-33488.79170284173,-38252.66370209023,-37147.97343587559,-26481.162188191676,-35318.59491093098
14214.725996819257,5005.6731707660165,-26495.780229065447,-33538.50198251033,-38033.974234339505,-37181.67986651419,-26371.370419427207,-35280.41813140132
14287.771497699201,4942.149513024034,-26576.470026549105,-33638.45898371446,-37972.19401266504,-37274.93134438174,-26389.385925458188,-35340.25375130818
14246.510177434706,4954.130048052079,-26579.241642861565,-33615.05670726975,-38194.59386999534,-37264.51543146556,-26511.091174017332,-35397.205996180295
14176.012775422667,5030.081275711212,-26486.593662094318,-33506.024897816766,-38276.222440746125,-37166.748901218045,-26499.66943260067,-35339.71730944125
14213.787223552135,5034.350458902176,-26467.125292673743,-33510.33878449664,-38056.43773751709,-37158.992845892055,-26367.16829146961,-35269.24225917367
14303.618884518015,4974.581894228684,-26553.246564060042,-33615.995480536876,-37944.924884429565,-37256.53585869502,-26364.97782051299,-35318.8854836089
14288.419698288406,4982.7179292104165,-26565.9200031662,-33605.3336984317,-38133.37244193225,-37263.911934365264,-26482.995031237013,-35385.76190301918
14203.661883313882,5048.342650931198,-26490.86284528528,-33505.957842583404,-38276.982400057605,-37174.50495654404,-26509.235979227542,-35349.395614790395
14211.328531662051,5056.813962079759,-26463.258440882975,-33493.1055895216,-38105.276299151934,-37154.947180145646,-26392.09048653728,-35280.038151745575
14301.897800194956,4995.570182272218,-26528.30201724792,-33589.1286837016,-37938.15230585961,-37241.67194863224,-26347.02936971538,-35303.70864912375
14296.667491992413,4965.015347601813,-26579.73338123958,-33624.310329474254,-38098.570775815344,-37283.87204216386,-26470.031019452934,-35385.739551274724
14211.753214806702,5031.37767688962,-26512.72285136257,-33524.39803175903,-38280.558679170455,-37199.27068940052,-26526.62563641377,-35366.6958649988
14207.349921149007,5069.7109186304715,-26452.261382610963,-33476.2523742023,-38147.4540409391,-37148.77809867598,-26417.102088582767,-35283.99441051417
14288.866733177512,5011.015237690835,-26521.998825311523,-33566.084035168176,-37948.12118388667,-37227.54564613648,-26348.795157527347,-35291.50459665115
14310.994960188265,4978.336987297176,-26577.9228899387,-33613.93912004699,-38055.05192936086,-37283.514414252575,-26451.143795388198,-35374.58603079153
14245.05731404511,5043.961709017958,-26500.63055761225,-33517.87132237808,-38256.66466434773,-37204.232776669596,-26525.39629046873,-35369.55688828908
14204.377139136452,5076.19292452251,-26450.316780843354,-33465.00944674128,-38186.54724199143,-37144.71008118511,-26436.8386789368,-35291.95163154026
14268.079610834076,5011.663438280039,-26510.711194361593,-33549.05200589323,-37971.411701609104,-37218.89552103228,-26348.348122638243,-35286.542509382074
14313.587762545081,4967.31757728071,-26582.79557022996,-33610.29578570077,-38021.63607140018,-37284.02850437504,-26422.153582829666,-35359.610362006475
14252.701610648824,5022.191109918489,-26528.436127714653,-33540.848915678136,-38236.011652471025,-37220.102515232866,-26514.935674063647,-35368.61811502196
14210.210944439286,5083.993683337412,-26441.867821439246,-33456.96281873737,-38212.96700393761,-37141.44672649464,-26452.32843784433,-35291.25872746214
14270.873578890989,5044.1181712291445,-26474.121388688254,-33514.11622930959,-37991.64003034116,-37187.088988672374,-26346.60468657073,-35262.849660259446
14327.781120274201,4980.862734420626,-26566.277631077486,-33600.03633499579,-37987.30379191683,-37271.8468036469,-26400.248873263467,-35334.12937332742
14264.033945087665,5004.108548654145,-26537.689749919147,-33550.88484893857,-38209.34602133585,-37237.581579396916,-26517.036738042443,-35373.71431275777
14185.556970305082,5056.0316510238235,-26457.80461523588,-33458.19216468241,-38249.10977472184,-37145.157116074224,-26476.423618367153,-35305.630899146905
14226.460662658295,5027.644935565583,-26469.226356652543,-33483.56139463918,-38019.087972532274,-37162.88204942728,-26346.64939005964,-35250.08681417547
14285.91630290941,4947.178655526478,-26553.090101848855,-33591.07328546921,-37954.71494850099,-37262.66023667577,-26370.40929441563,-35316.58325393
14226.035979513643,4935.779265854271,-26558.20865132912,-33576.58935506217,-38175.4607767416,-37255.91000985027,-26499.982357023044,-35377.71527501527
14137.74658891518,4992.284475837288,-26463.481958327528,-33462.5954583401,-38260.28564694949,-37155.50597375703,-26488.62767083975,-35317.47732370822
14130.906955111857,4955.404097486031,-26456.508214057474,-33479.448673659404,-38062.495060264475,-37165.74307271756,-26367.481215891985,-35259.698064291246
14188.976787206744,4862.554951018686,-26547.8150901574,-33591.98970699188,-37951.138669388136,-37260.648579674795,-26361.714465822515,-35307.19552125878
14126.704827154259,4816.353895229566,-26604.722631540615,-33608.66410835554,-38145.01770079347,-37279.312286294975,-26493.20977845309,-35384.64431579642
14017.96359037919,4855.670613726451,-26532.19122078314,-33507.81303737319,-38294.4391124772,-37189.65943928474,-26522.714081134094,-35352.90483866988
14009.939314119734,4854.888302670515,-26464.867766483756,-33485.617755129075,-38102.63879330621,-37153.87429641179,-26390.279995236397,-35267.90115450635
14080.59317834296,4776.791307543673,-26536.68392141866,-33590.13451220209,-37949.708157743,-37242.94599806619,-26351.186794184065,-35296.08670426449
14081.889579521368,4758.194656156857,-26585.54483479796,-33601.243329196375,-38094.25688913547,-37274.57371647045,-26462.610240293772,-35369.53453654463
13982.446668439707,4804.306304968155,-26525.530400935462,-33513.02099383128,-38281.76567337104,-37196.186148665685,-26523.675206145672,-35358.31396082806
13960.273737940042,4824.735799400306,-26467.505272329483,-33474.24071720132,-38152.617293908275,-37146.766441675005,-26416.163315315644,-35275.143119709865
14035.35324756542,4765.36956612701,-26546.20576455662,-33570.554384059236,-37961.12989915966,-37230.11609674884,-26354.0701692188,-35285.64843960386
14071.697184049748,4741.006164670725,-26599.26880589352,-33620.7340503614,-38057.465917762034,-37284.60964973088,-26451.41201632166,-35365.80179522059
13999.29988375901,4801.288819466689,-26527.698520147627,-33531.59529347364,-38262.923152795214,-37209.9324715057,-26525.0610143019,-35361.64437075191
13960.541958873506,4842.058401353169,-26468.801673507893,-33471.15617646649,-38191.73284670506,-37149.985092876566,-26442.62778075073,-35287.593041371474
14030.927602163269,4789.442394905376,-26527.765575380992,-33555.042273407256,-37970.60703880871,-37216.57093960893,-26348.88456450517,-35276.774797055106
14069.439657859763,4734.948841923338,-26620.83823929289,-33642.23642852741,-38029.68269940409,-37299.87589119386,-26428.56853348834,-35360.28091434013
14019.304695046509,4798.04781652067,-26559.52740425198,-33573.59422130516,-38250.00384450005,-37245.292931234,-26528.10085154782,-35380.26337388317
13978.468057926662,4871.58505577863,-26473.115560187765,-33480.499205648804,-38226.89214073326,-37160.69157847066,-26466.700609529093,-35303.61924214593
14041.96936392419,4836.5598722171635,-26506.86669431528,-33538.63609297706,-38005.20753922553,-37204.8809772588,-26360.909803022125,-35272.5279656086
14107.996417045168,4778.668854077918,-26598.17357041521,-33633.51924818984,-37995.99862050994,-37295.78552195853,-26413.257588536453,-35344.925265899335
14069.551416582039,4825.38399998951,-26573.519596281007,-33582.46786385392,-38222.71236452012,-37258.391053484804,-26534.29228476194,-35383.05734194009
14010.229886797653,4900.418806125976,-26488.739429562025,-33488.65759237499,-38266.566487141434,-37167.68767448517,-26502.955139035603,-35318.81842837553
14055.693335019749,4881.799802994705,-26497.635423855238,-33516.88784562205,-38036.365870996226,-37184.49618631556,-26368.442340903563,-35263.56491608202
14136.89722262588,4819.997229575781,-26585.58953828687,-33625.852599841666,-37964.50501257241,-37284.74376019761,-26391.308175481343,-35328.139105813396
14123.106196296954,4846.416991521954,-26581.610927773825,-33597.041201238775,-38180.95930587761,-37278.3511612834,-26525.172773024176,-35392.22155716676
14054.955727452723,4924.35752443761,-26490.214644696076,-33488.2552609748,-38272.28853372199,-37179.02000892401,-26514.555694407907,-35332.43064074882
14085.242341189665,4927.978507039369,-26480.648098069203,-33497.978269812855,-38070.42992954611,-37175.06375015542,-26384.110913766734,-35266.29182890557
14173.79995272159,4866.5559132761855,-26553.134805337766,-33599.94692801797,-37943.27085533987,-37269.254001290086,-26368.04000950337,-35309.050716048565
14165.395696806396,4867.002948165292,-26585.902462709244,-33612.575663635216,-38133.84182856582,-37292.2539463346,-26501.368165179276,-35389.27112689866
14094.048928505055,4946.351640981632,-26492.427467397152,-33501.44279020343,-38281.09512103738,-37199.807131267444,-26532.593552183338,-35355.22942009323
14099.547457641062,4963.853056890137,-26462.833757738324,-33483.04730451671,-38126.13047672874,-37173.56618327692,-26421.0359956069,-35284.26263144763
14186.383984849928,4905.49265211733,-26548.999732613534,-33584.54657608826,-37957.93359970255,-37257.988722084614,-26374.36555318422,-35307.173169514324
14197.738671033225,4884.705529773895,-26596.206616903142,-33624.42208819653,-38104.091656695804,-37302.84867320641,-26492.740391819527,-35388.53351933164
14131.17517604532,4958.086306820668,-26518.713118876592,-33523.39220325854,-38281.85508034886,-37213.665212829736,-26538.852040630823,-35363.49956554169
14123.307361997053,4997.537135784285,-26460.46447282606,-33473.21253695638,-38154.74070963153,-37160.06572962591,-26421.974768874024,-35278.562936611524
14214.323665419062,4951.380783484075,-26509.884179816745,-33554.192907117955,-37952.34566358873,-37230.67489036023,-26348.25871566042,-35282.139215724375
14247.426598957372,4914.478053388364,-26580.44863706215,-33610.94398628998,-38053.487307248986,-37291.04695213401,-26456.217641379553,-35369.847460967
14166.736801473715,4959.338004510165,-26534.06876731739,-33536.73619469836,-38269.96395229864,-37229.534951393005,-26550.9666861256,-35380.375132605455
14138.215975548743,5017.385484860598,-26457.46933906905,-33460.6955600614,-38197.72311421909,-37154.76836619,-26459.123368158744,-35294.231509474695
14217.363502664984,4980.706272209439,-26503.804505324904,-33529.226008561374,-37971.94814347603,-37212.25705292905,-26354.628962830182,-35271.45508187474
14270.717116679803,4930.16897799599,-26570.278593334984,-33602.852654797156,-38009.34261194976,-37288.99059164412,-26423.22646656352,-35348.702710712285
14204.779470536647,4967.563446469718,-26536.16983129619,-33543.75464245732,-38232.48007684709,-37240.55436140947,-26528.436127714653,-35374.966010447264
14154.75626644567,5028.0919704546895,-26457.357580346776,-33457.633371071024,-38225.32751862139,-37153.67313071169,-26471.103903186788,-35297.248994976166
14224.873688801968,5004.0861969096895,-26473.22731891004,-33505.53315943875,-37987.95199250603,-37187.670134028216,-26351.231497672976,-35258.55812532403
14281.982395885278,4936.159245510012,-26565.249450832544,-33610.116971745134,-37972.12695743167,-37284.833167175435,-26399.51126569644,-35336.56571347305
14235.848395329524,4964.724774923894,-26547.703331435125,-33567.2239741354,-38195.57734675138,-37258.07812906243,-26514.689804874637,-35383.19145240682
14170.961281175767,5031.444732122985,-26472.28854564292,-33468.764539809774,-38249.176829955206,-37170.77221522,-26484.358487648784,-35320.69597490978
14218.52579337666,5018.927755228014,-26468.868728741258,-33498.02297330177,-38033.214275028025,-37183.73622700408,-26361.0215617444,-35269.80105278505
14302.344835084063,4958.4215829874975,-26534.67226441768,-33590.045105224264,-37944.88018094065,-37268.71755942316,-26367.391808914163,-35325.16632380084
14265.240939288253,4957.639271931562,-26544.797604655934,-33585.507701099836,-38164.26255276949,-37272.36089376937,-26496.67429884366,-35396.11076070199
14187.278054628141,5027.980211732413,-26461.38089434873,-33488.14350225252,-38263.52664989551,-37179.15411939074,-26497.948348277612,-35349.55207700159
14208.758081049691,5027.890804754592,-26445.399397063185,-33490.04340053122,-38067.09951962227,-37167.86648844081,-26366.944774025058,-35283.681486091795
14288.889084921968,4960.366184755109,-26537.130956307767,-33598.69523032847,-37937.52645701486,-37263.88958262081,-26341.44143360155,-35327.35679475746
14283.077631363587,4953.88417886307,-26562.276668819984,-33605.646622854074,-38115.356935901276,-37275.244268804105,-26459.078664669833,-35398.03301072514
14201.270246657163,5023.800435519271,-26482.65975507018,-33504.16970302698,-38268.108757508846,-37178.50591880154,-26492.315708674876,-35363.11958588596
14201.583171079537,5043.335860173209,-26442.76189121746,-33480.2533364598,-38112.83118877783,-37145.49239224105,-26376.958355541035,-35286.766026826626
14284.68695696437,4974.425432017498,-26523.29522648993,-33587.2287854229,-37943.82964895125,-37236.262826474056,-26332.120756163687,-35316.20327427427
14289.961968655822,4941.389553712554,-26574.100741636845,-33631.19466676649,-38086.07615066483,-37281.390998529314,-26440.817289449846,-35399.597632837016
14196.799897766103,4994.474946793908,-26501.546979134917,-33535.30568305322,-38272.24383023308,-37194.733285276096,-26498.14951397771,-35383.41496985137
14168.681403241326,5018.838348250192,-26454.071873911846,-33488.970516797366,-38155.92535208766,-37142.60901720631,-26400.427687219108,-35305.67560263581
14224.873688801968,4942.484789190864,-26512.834610084847,-33583.09371269867,-37963.49918407192,-37219.63312859931,-26335.250000387434,-35312.761105628146
14248.365372224496,4897.11074794659,-26561.002619386032,-33630.45705919946,-38038.33282450829,-37268.069358833956,-26419.538428728396,-35383.012638451175
14156.164426346353,4933.141760008545,-26515.62857814176,-33548.604971004126,-38247.79102179897,-37193.0792561864,-26496.897816288212,-35383.57143206256
14070.892521249358,4938.997917055835,-26468.28758338542,-33495.899557578516,-38202.50638753252,-37137.62457819278,-26430.177859089123,-35315.2868527516
14120.55809742905,4877.687082014929,-26505.27972045895,-33557.053930408234,-37979.883012757666,-37186.93252646119,-26329.706767762516,-35294.723247852715
14148.497777998184,4799.455976421354,-26602.50980883954,-33648.494916974894,-38014.08118177428,-37270.215126301664,-26409.591902445783,-35378.22936513774
14062.421210100796,4816.689171396395,-26566.21057584412,-33595.70009657146,-38252.35077766786,-37229.289082204,-26527.318540491884,-35416.83082781206
13971.181389234232,4847.333413044621,-26473.22731891004,-33506.06960130568,-38243.70065256365,-37139.569179960396,-26462.543185060407,-35335.38107101692
14005.20074429521,4793.868040307527,-26504.072726258368,-33567.93922995797,-38016.45046668655,-37181.81397698093,-26355.187756441566,-35301.13819851139
14041.499977290629,4704.461062486299,-26595.714878525127,-33668.11974860665,-37977.75959703441,-37272.22678330264,-26390.97289931451,-35368.5957632775
13978.62452013785,4709.221984055279,-26589.188169144174,-33640.18006803752,-38213.48109406008,-37252.31137899296,-26522.311749733897,-35421.904673803416
13899.164068599233,4757.591159056564,-26501.546979134917,-33552.76239547281,-38272.7355686111,-37164.84900293934,-26504.810333825393,-35363.20899286377
13931.70820852616,4737.206368113323,-26499.71413608958,-33575.13649167258,-38051.76622292593,-37177.36597983432,-26378.83590207528,-35306.2343962472
14012.554468221006,4676.700195872807,-26596.40778260324,-33678.75917896738,-37965.689655028546,-37274.93134438174,-26386.65901263464,-35360.862059695966
13983.608959151383,4681.461117441788,-26599.44761984916,-33665.10226310519,-38170.78926215044,-37274.28314379253,-26513.95219730761,-35424.49747616023
13897.398280787264,4745.834141473072,-26503.335118691342,-33560.11611939861,-38282.41387396024,-37179.64585776876,-26521.887066589246,-35373.55785054658
13915.391435073787,4750.907987464427,-26484.0008597375,-33557.322151341694,-38092.4911013235,-37167.55356401844,-26399.824190118816,-35304.06627703503
14003.72552916116,4687.45138495581,-26574.815997459413,-33664.945800894,-37956.77130899087,-37265.07422507694,-26377.137169496677,-35344.85821066597
13989.353357476397,4665.010233522682,-26610.31056765444,-33683.83302495874,-38139.206247235095,-37292.96920215717,-26505.950272792612,-35422.239949970244
13916.397263574276,4741.2967373486445,-26527.25148525852,-33577.326962629195,-38298.35066775688,-37201.17058767922,-26546.697502934636,-35392.75799903369
13935.530356828018,4783.340368669077,-26481.273946913952,-33545.54278201375,-38139.541523401924,-37163.35143606084,-26429.37319628873,-35310.19065501579
14027.820709683981,4725.583460996564,-26562.522538008994,-33656.87682114563,-37965.28732362835,-37259.01690232955,-26386.390791701175,-35336.18573381731
14048.943108194246,4702.069425829581,-26619.854762536856,-33701.17797865605,-38101.1412264277,-37310.4035628323,-26499.78119132295,-35421.52469414767
13995.969473835168,4786.84959254856,-26541.333084265363,-33601.51155012984,-38294.752036899576,-37227.34448043638,-26561.561412997416,-35408.270109685676
13989.219247009665,4836.805741406172,-26479.686973057625,-33546.30274132523,-38190.23527982656,-37168.80526170794,-26457.514042557963,-35323.177018544324
14079.319128909008,4782.625112846507,-26533.800546383925,-33625.96435856394,-37974.85387025522,-37240.33084396492,-26373.06915200581,-35321.70180341027
14121.385111973896,4741.207330370824,-26598.88882623778,-33687.34224883822,-38056.39303402818,-37309.1071616539,-26467.974658963045,-35404.51501661718
14053.279346618576,4794.203316474356,-26554.788834427458,-33612.776829335315,-38279.10581578086,-37249.0927277914,-26563.416607787207,-35420.22829296927
14034.079198131467,4868.120535388057,-26476.66948755616,-33532.53406674076,-38222.399440097746,-37168.91702043021,-26476.244804411508,-35335.15755357237
14117.160632271843,4832.000116348281,-26514.73450836355,-33601.17627396301,-37998.256146699925,-37223.23175945661,-26376.667782863115,-35312.93991958379
14178.225598123741,4782.0886709795805,-26583.30966035243,-33677.865109189166,-38014.52821666339,-37300.88171969434,-26441.0408068944,-35389.42758910985
14123.55323118606,4826.09925581208,-26554.00652337152,-33623.41625969604,-38244.3265014084,-37259.307475007474,-26550.832575658867,-35421.36823193648
14071.048983460545,4891.455756599397,-26484.738467304527,-33546.19098260295,-38255.83764980288,-37184.227965382095,-26508.543075149428,-35357.017559649656
14132.583335946005,4860.945625417903,-26512.633444384748,-33601.1315704741,-38038.109307063736,-37222.36004142285,-26399.22069301852,-35322.193541788285
14200.756156534691,4796.192621730879,-26595.06667793592,-33697.8028652433,-37999.88782404516,-37312.81755123348,-26432.636550979205,-35388.04178095362
14167.51911252965,4834.034125093714,-26586.863587720825,-33656.80976591227,-38225.461629088124,-37288.051818377,-26558.409817029216,-35438.55672342262
14115.953638071256,4921.362390680599,-26485.00668823799,-33534.344558041645,-38274.72487386762,-37178.81884322391,-26527.25148525852,-35363.454862052786
14151.984650133212,4907.280791673755,-26479.597566079807,-33561.948962443945,-38060.10342360776,-37197.14727367726,-26409.211922790044,-35310.101248037965
14234.596697640027,4842.036049608713,-26569.540985767962,-33668.25385907339,-37971.27759114237,-37294.980859158146,-26415.04572809288,-35366.96408593227
14210.412110139385,4848.987442134314,-26580.582747528882,-33658.86612640216,-38172.398587751224,-37293.70680972419,-26534.649912673227,-35426.12915350546
14132.963315601744,4922.949364536925,-26502.262234957485,-33554.483479795876,-38294.30500201047,-37202.71285804664,-26549.82674715838,-35381.0009814502
14157.03614438011,4934.125236764578,-26486.057220227387,-33548.98495065987,-38108.02556371994,-37188.988886951076,-26427.160373587656,-35309.475399193216
14246.130197778964,4874.937817446926,-26566.434093288673,-33648.67373093054,-37961.88985847114,-37275.71365543767,-26398.997175573968,-35342.399518775885
14253.550976938126,4872.5461807902075,-26575.41949455971,-33653.63581819962,-38125.281110439435,-37292.723332968155,-26513.415755440685,-35407.80072305211
14172.145923631899,4936.02513504328,-26506.889046059736,-33560.339636843164,-38300.31762126894,-37214.31341341894,-26568.468102034105,-35389.47229259876
14173.218807365753,4960.03090858828,-26458.966905947556,-33534.3669097861,-38143.74365135952,-37179.24352636856,-26452.70841750007,-35315.39861147387
14252.34398273754,4896.462547357386,-26550.832575658867,-33637.96724533645,-37967.924829474076,-37270.88567863532,-26399.444210463073,-35336.20808556177
14271.879407391478,4867.919369687959,-26589.724611011105,-33676.97103941096,-38085.740874498,-37318.33843211394,-26497.85894129979,-35414.64035685544
14197.448098355306,4930.548957651729,-26525.351586979818,-33583.6748580545,-38283.57616467192,-37240.17438175373,-26565.830596188378,-35408.76184806369
14179.298481857597,4970.670338949006,-26468.846376996804,-33528.98013937237,-38186.36842803579,-37178.61767752381,-26469.628688052737,-35324.294605767085
14260.502369463728,4922.2117569699,-26516.097964775323,-33606.31717518773,-37968.483623085456,-37245.337634722906,-26381.56281489883,-35315.82329461852
14295.773422214203,4875.8318872251375,-26588.718782510616,-33675.8981556771,-38041.86440013223,-37316.23736813514,-26470.43335085313,-35399.508225859194
14232.38387493895,4937.030963543769,-26540.77429065398,-33592.704962814445,-38268.3322749534,-37249.249190002585,-26568.870433434302,-35413.366307421486
14198.275112900152,5002.566278286729,-26446.226411608033,-33504.10264779361,-38214.062239415915,-37165.005465150534,-26482.168016692165,-35322.193541788285
14258.982450840766,4953.593606185152,-26500.831723312345,-33583.07136095421,-37991.75178906343,-37225.01989901303,-26385.139094011676,-35302.99339330118
14310.547925299159,4896.507250846297,-26600.83342800539,-33672.38893179762,-38022.12780977819,-37313.19753088922,-26462.029094937934,-35388.28765014263
14254.690915905347,4932.046524530235,-26555.01235187201,-33613.55914039125,-38243.65594907474,-37271.73504492462,-26573.49724453655,-35422.642281370434
14195.257627398685,4992.396234559565,-26464.599545550293,-33524.487438736855,-38253.356606168345,-37183.602116537346,-26518.1096217763,-35350.60260899098
14252.902776348923,4965.976472613392,-26501.412868668183,-33569.63796253657,-38027.29106274737,-37208.904291260755,-26393.163370271133,-35299.618279888426
14326.037684206687,4896.619009568573,-26579.55456728394,-33661.39187352561,-37986.99086749445,-37301.08288539444,-26426.288655553897,-35364.72891148674
14275.410983015418,4915.886213289048,-26564.35538105433,-33627.55133242027,-38210.351849836334,-37285.257850320086,-26551.10079659233,-35418.37309817947
14200.24206641222,4983.3661297996205,-26474.18844392162,-33518.608929945105,-38276.9376965687,-37184.27266887101,-26531.83359287186,-35354.42475729284
14224.113729490487,4956.5440364532515,-26479.57521433535,-33543.37466280159,-38067.07716787782,-37191.76050326353,-26412.40822224715,-35297.114884509436
14288.464401777317,4875.6530732694955,-26566.322334566397,-33648.025530341336,-37965.13086141716,-37282.97797238564,-26411.84942863577,-35345.37230078844
14259.362430496507,4883.319721617666,-26569.384523556775,-33638.302521503276,-38163.4578899691,-37287.73889395462,-26533.9123051062,-35407.3089846741
14163.540502016605,4925.11748374909,-26517.595531653827,-33544.31343606871,-38301.99400210309,-37205.68564005919,-26558.54392749595,-35375.77067324766
14144.161539573854,4888.907657731493,-26515.472115930574,-33553.74587222885,-38122.88947378272,-37197.9295847332,-26442.091338883798,-35313.744582384184
14203.61717982497,4803.434586934399,-26560.175604841188,-33655.40160601158,-37973.42335861008,-37285.57077474246,-26410.687137924095,-35345.64052172191
14188.216827895265,4780.926380267904,-26591.043363933964,-33652.22765829893,-38134.33356694384,-37304.413295318285,-26526.580932924862,-35417.61313886799
14087.432812146284,4830.010811091758,-26519.29426423243,-33547.44268029245,-38304.09506608189,-37211.005355239555,-26568.870433434302,-35386.946545475315
14036.292020832541,4808.799005603672,-26465.38185660623,-33518.3630607561,-38146.671729883165,-37165.96659016211,-26445.71232148556,-35298.70185836576
14074.848780017946,4709.020818355181,-26565.472968277096,-33623.125687018124,-37972.41753010959,-37255.75354763908,-26390.011774302933,-35318.17022778633
14066.243358402653,4645.564215846564,-26621.01705324853,-33685.10707439269,-38106.460941608064,-37319.52307457007,-26514.73450836355,-35412.24872019872
13976.188179992221,4697.509669960698,-26552.017218115,-33593.71079131494,-38306.8890341388,-37240.934341065215,-26587.042401676466,-35408.1583509634
13932.602278304372,4721.671905716885,-26492.427467397152,-33538.054947621225,-38202.14875962124,-37183.400950837255,-26475.551900333394,-35321.32182375453
13996.215343024176,4652.5379601166205,-26553.559488482417,-33624.48914342989,-37992.13176871917,-37256.021768572544,-26392.69398363757,-35321.34417549898
14023.842099170935,4599.899601924372,-26627.007320762554,-33697.19936814301,-38058.82937417381,-37322.920539727274,-26479.418752124162,-35399.932909003845
13946.683877311216,4634.544805830098,-26586.438904576175,-33630.85939059966,-38285.43135946171,-37271.8468036469,-26580.40393357324,-35422.97755753727
13904.953170413159,4692.59228618053,-26508.654833871704,-33541.69828196744,-38246.27110317601,-37189.815901495924,-26506.665528615184,-35341.30428329758
13972.0978107569,4648.648756581397,-26548.977380869077,-33609.289957200286,-38021.79253361136,-37240.934341065215,-26404.898036110168,-35312.761105628146
14037.320201077486,4593.864630921439,-26626.157954473252,-33708.37524037066,-38027.22400751401,-37331.8612375094,-26468.91343223017,-35393.920289745365
13995.969473835168,4644.647794323897,-26600.028765205,-33649.36663500865,-38255.63648410279,-37287.8506526769,-26581.9238521962,-35426.75500235021
13954.954022759679,4730.2549755877235,-26502.53045589095,-33548.02382564829,-38268.39933018677,-37191.44757884116,-26526.24565675803,-35347.51806825615
14011.079253086955,4707.6573619434075,-26522.892895089735,-33596.281241927296,-38043.563132710835,-37220.6836605887,-26406.730879155504,-35300.75821885565
14086.270521434608,4650.3698409044555,-26616.50200086856,-33698.831045488245,-37999.016106011404,-37317.24319663563,-26443.387740062208,-35367.76874873266
14045.478587803673,4673.347434204511,-26626.023844006522,-33682.49192029142,-38237.46451586062,-37311.58820528844,-26575.933584682178,-35429.95130180732
13998.495220958617,4770.510467351731,-26512.700499618113,-33565.63700027907,-38296.78604564501,-37204.90332900325,-26548.48564249106,-35357.71046372777
14049.658364016816,4777.260694177234,-26505.34677569232,-33581.46203535343,-38087.41725533215,-37209.77600929451,-26429.507306755462,-35300.46764617773
14137.94775461528,4716.687466703352,-26596.49718958106,-33683.944783681014,-37985.58270759376,-37303.854501706905,-26433.642379479694,-35354.26829508165
14120.759263129148,4724.1529493514245,-26618.290140424986,-33682.067237146766,-38186.4131315247,-37315.2091878902,-26562.63429673127,-35423.33518544855
14055.983907697668,4807.860232336549,-26525.508049191005,-33575.717637028414,-38317.595519732895,-37218.761410565545,-26578.414628316717,-35377.983495948734
14077.553341097038,4827.596822690585,-26491.10871447429,-33562.731273499885,-38129.97497677505,-37199.71772428963,-26447.008722663966,-35301.428771189305
14181.354842347484,4783.250961691256,-26567.194052600153,-33654.373425766644,-37963.47683232747,-37282.888565407826,-26401.478219208508,-35325.74746915668
14196.509325088184,4782.938037268882,-26592.228006390098,-33669.48320501843,-38122.08481098233,-37307.4531325642,-26520.38949971074,-35401.0057927377
14115.081920037499,4847.646337466996,-26524.323406734875,-33579.33861963017,-38303.133941070315,-37228.216198470145,-26577.20763411613,-35382.78912100662
14114.634885148393,4887.2759803862555,-26480.80456028039,-33542.77116570129,-38162.38500623524,-37188.2289276396,-26460.28565887042,-35303.44042819028
14204.846525770012,4831.3966192479875,-26549.603229713826,-33633.675710401025,-37973.512765587904,-37267.488213478115,-26393.90097783816,-35313.677527150816
14232.58504063905,4797.6454851204735,-26605.057907707444,-33685.30824009279,-38091.239403634005,-37323.077001938465,-26502.843380313323,-35399.15059794791
14159.785408948113,4865.035994653224,-26545.40110175623,-33596.84003553868,-38304.452693993175,-37249.60681791387,-26587.467084821117,-35399.105894459
14138.283030782108,4916.869690045081,-26473.38378112123,-33527.88490389406,-38204.361582322315,-37183.669171770714,-26485.94546150511,-35310.83885560499
14221.364464922484,4872.255608112288,-26519.942464821634,-33602.96441351943,-37986.32031516079,-37246.74579462359,-26391.330527225797,-35299.59592814397
14268.638404445459,4832.245985537289,-26579.532215539482,-33667.22567882844,-38035.225932029,-37312.728144255656,-26467.86290024077,-35375.681266269836
14199.638569311926,4881.106898916591,-26529.218438770586,-33597.28707042779,-38258.40810041525,-37256.446451717195,-26564.511843265518,-35395.48491185724
14143.98272561821,4932.895890819537,-26471.841510753813,-33523.436906747454,-38237.419812371714,-37185.770235749515,-26503.44687741362,-35323.26642552214
14207.662845571382,4896.127271190557,-26507.827819326856,-33587.85463426765,-38012.0695247733,-37237.916855563744,-26398.59484417377,-35298.83596883249
14277.333233038573,4856.00588989328,-26576.335916082375,-33664.56582123826,-38005.34164969226,-37314.270414623075,-26448.975676176033,-35366.85232720999
14220.76096782219,4892.930971733448,-26556.979305384077,-33612.776829335315,-38241.08549846238,-37280.40752177328,-26570.479759035083,-35408.13599921895
14159.271318825642,4962.579007456185,-26473.47318809905,-33520.17355205698,-38267.79583308647,-37193.54864281996,-26534.761671395503,-35340.94665538629
14209.473336872261,4942.931824079969,-26482.43623762563,-33555.75752922983,-38042.60200769926,-37217.75558206506,-26412.98936760299,-35294.74559959717
14286.028061631689,4885.06315768518,-26567.14934911124,-33647.35497800767,-37976.91023074511,-37301.57462377246,-26427.9873881325,-35346.42283277784
14245.43729370085,4896.954285735404,-26566.434093288673,-33627.05959404226,-38201.1652828652,-37293.90797542429,-26557.426340273185,-35405.252624184206
14168.971975919245,4964.8141819017155,-26481.966850992067,-33525.89559863754,-38291.42162697573,-37201.81878826842,-26551.793700670445,-35351.65314098038
14208.311046160585,4971.36324302712,-26462.99021994951,-33528.5107527388,-38071.949848169075,-37195.135616676285,-26422.26534155194,-35285.96136402623
14293.806468702134,4912.242878942833,-26542.3165610214,-33621.67282362853,-37951.18337287705,-37279.89343165081,-26405.456829721552,-35325.970986601234
14270.20302655733,4907.794881796227,-26573.005506158534,-33627.238407997895,-38153.176087519656,-37296.59018475893,-26536.30394176292,-35399.99996423721
14186.831019739035,4973.21843781691,-26479.66462131317,-33524.912121881505,-38286.66070540675,-37205.46212261464,-26559.259183318518,-35360.10210038449
14187.18864765032,4977.621731474606,-26466.342981617807,-33520.352366012616,-38121.48131388203,-37191.31346837443,-26449.19919362059,-35295.12557925291
14275.187465570863,4914.813329555193,-26539.88022087577,-33618.431820682505,-37958.44768982502,-37276.585373471426,-26406.88734136669,-35321.34417549898
14269.77834341268,4887.119518175068,-26588.15998889923,-33647.377329752126,-38120.9001685262,-37314.695097767726,-26529.933694593157,-35400.916385759876
14189.200304651298,4959.762687654816,-26514.73450836355,-33543.776994201784,-38304.050362592985,-37227.97032928113,-26586.1259801538,-35380.30807737209
14180.818400480557,4991.971551414914,-26449.646228509693,-33501.688659392436,-38151.723224130066,-37178.282401356984,-26459.793920492404,-35289.60469837245
14262.514026464705,4932.448855930431,-26512.05229902891,-33590.64860232456,-37951.74216648843,-37254.81477437196,-26385.496721922962,-35293.89623330787
14278.294358050152,4890.092300187624,-26588.383506343784,-33647.26557102985,-38068.8876591787,-37313.53280705605,-26491.28752842993,-35377.93879245983
14203.438365869328,4953.481847462875,-26511.44880192862,-33553.075319895186,-38278.301152980464,-37234.74290785109,-26570.323296823895,-35375.63656278093
14168.122609629943,4987.7694234573155,-26442.60542900627,-33488.2552609748,-38192.73867520555,-37169.54286927496,-26479.552862590896,-35292.21985247372
14247.426598957372,4945.077591547679,-26494.43912439813,-33567.8721747246,-37980.4641581135,-37234.429983428716,-26396.27026275042,-35286.341343681976
14274.405154514929,4884.102032673602,-26582.057962662933,-33638.928370348025,-38037.57286519681,-37306.06732440797,-26480.916319002667,-35364.66185625337
14192.664825041871,4911.862899287093,-26537.086252818855,-33568.63213403608,-38258.743376582075,-37251.73023363713,-26577.83348296088,-35383.41496985137
14141.613440705949,4967.250522047344,-26439.118556871243,-33476.96763002487,-38226.04277444396,-37164.60313375034,-26501.77049657947,-35299.86414907744
14193.782412264636,4923.239937214844,-26475.90952824468,-33541.45241277843,-37998.79258856685,-37214.40282039676,-26397.343146484276,-35273.22086968671
14225.410130668895,4833.788255904706,-26571.01620090201,-33633.60865516766,-38001.22892871248,-37300.32292608296,-26454.27303961194,-35348.43448977882
14135.869042380935,4822.746494143784,-26552.73247393757,-33588.30166915675,-38223.53937906497,-37269.54457396801,-26566.881128177778,-35389.78521702113
14040.561204023506,4849.792104934705,-26464.644249039204,-33494.24552848882,-38260.46446090513,-37182.26101187003,-26534.135822550754,-35323.177018544324
14052.87701521838,4797.958409542848,-26487.174807450156,-33534.07633710818,-38039.785687897886,-37210.22304418362,-26414.0846030813,-35277.89238427787
14096.619379117416,4705.019856097681,-26583.84610221936,-33638.74955639238,-37980.352399391224,-37303.005135417596,-26432.815364934846,-35339.71730944125
14022.858622414902,4679.114184273981,-26587.332974354384,-33620.62229163913,-38193.90096591723,-37292.879795179346,-26559.482700763074,-35396.26722291318
13907.009530903046,4713.491167246243,-26508.408964682694,-33527.10259283812,-38294.6402781773,-37204.098666202866,-26563.461311276118,-35347.7415857007
13923.080435166412,4705.243373542235,-26493.366240664272,-33534.70218595293,-38094.05572343537,-37205.64093657028,-26440.213792349554,-35288.26359370513
13991.521476688562,4621.334924857012,-26582.54970104095,-33643.51047796136,-37975.47971909997,-37301.90989993929,-26431.206039334065,-35336.96804487325
13959.804351306482,4604.258192093157,-26604.521465840517,-33646.393852996094,-38163.390834735736,-37312.370516344374,-26552.665418704204,-35406.034935240146
13863.893015848758,4663.937349788827,-26520.031871799456,-33539.708976710914,-38301.21169104716,-37218.89552103228,-26577.58761377187,-35366.80762372108
13865.100010049346,4674.241503982724,-26493.500351131006,-33519.81592414569,-38127.73980232952,-37188.295982872965,-26452.127272144233,-35289.001201272156
13950.66248782426,4603.922915926328,-26573.96663117011,-33632.5357714338,-37969.19887890803,-37283.156786341286,-26418.286731038897,-35320.27129176513
13957.256252438576,4581.079433093004,-26621.84406779338,-33678.13333012263,-38127.248063951505,-37330.00604271961,-26537.220363285585,-35405.09616197302
13887.36234752683,4664.719660844763,-26553.78300592697,-33577.01403820682,-38310.06298185146,-37245.13646902281,-26597.145390170266,-35389.941679232325
13886.93766438218,4706.807995654106,-26484.112618459778,-33524.93447362596,-38173.85145114082,-37186.08316017189,-26479.642269568714,-35299.9312043108
13985.173581263254,4665.859599811984,-26548.8656221468,-33614.27439621382,-37975.4126638666,-37264.783652399026,-26408.742536156482,-35306.61437590294
14022.791567181537,4645.251291424191,-26611.60696883285,-33670.600792241195,-38078.029522660916,-37323.8593129944,-26508.297205960418,-35386.298344886105
13959.223205950644,4715.905155647416,-26547.703331435125,-33583.98778247688,-38282.59268791589,-37250.74675688109,-26585.0754481644,-35384.86783324097
13931.819967248437,4764.140220181968,-26494.61793835377,-33520.75469741281,-38216.05154467244,-37188.36303810633,-26502.06106925739,-35307.19552125878
14017.740072934637,4717.089798103547,-26537.265066774497,-33597.55529136125,-37993.294059430846,-37250.32207373644,-26404.495704709974,-35292.82334957401
14076.212236429721,4677.571913906564,-26605.370832129818,-33673.461815531475,-38031.06850756032,-37321.87000773788,-26476.28950790042,-35368.46165281077
14017.091872345432,4732.959536666815,-26571.68675323567,-33607.971204277426,-38267.415853430735,-37273.88081239234,-26595.55841631394,-35397.988307236235
13978.848037582404,4808.843709092583,-26490.080534229342,-33521.22408404638,-38256.23998120308,-37189.63708754028,-26538.38265399726,-35324.20519878926
14053.793436741047,4788.95065652736,-26510.1076972613,-33574.98002946139,-38017.61275739822,-37231.79247758299,-26410.620082690726,-35285.02259075911
14129.968181844733,4744.493036805754,-26593.233834890587,-33663.62704797114,-38005.00637352543,-37320.73006877066,-26456.441158824106,-35358.87275443945
14090.383242414386,4786.938999526382,-26567.77519795599,-33614.49791365837,-38231.85422800234,-37281.18983282922,-26575.64301200426,-35396.580147335546
14030.815843440992,4867.070003398658,-26487.755952805994,-33526.432040504464,-38271.30505696595,-37189.14534916227,-26536.90743886321,-35323.22172203323
14080.637881831872,4858.732802716828,-26499.691784345127,-33558.171517630995,-38050.827449658806,-37214.89455877478,-26416.409184504653,-35276.774797055106
14169.75428697518,4801.959371800348,-26570.54681426845,-33644.315140761755,-37971.16583242009,-37300.61349876088,-26426.288655553897,-35329.971948858736
14134.37147550243,4812.464691694342,-26583.98021268609,-33634.07804180122,-38192.537509505455,-37301.261699350085,-26561.58376474187,-35395.395504879416
14065.706916535726,4895.6131810680845,-26492.896854030714,-33525.29210153724,-38286.2360222621,-37205.350363892365,-26553.78300592697,-35339.76201293016
14098.921608796312,4898.183631680445,-26478.591737579318,-33532.511714996304,-38081.941077940595,-37200.27651790101,-26424.969902631034,-35273.22086968671
14185.981653449733,4832.737723915306,-26565.45061653264,-33643.35401575018,-37965.60024805072,-37300.837016205434,-26416.543294971383,-35322.260597021654
14167.340298574007,4822.09829355458,-26616.70316656866,-33658.486146746414,-38166.095395814824,-37324.552217072516,-26551.056093103423,-35403.084504972045
14098.27340820711,4904.308009661199,-26510.510028661494,-33547.64384599255,-38307.13490332782,-37229.37848918182,-26579.93454693968,-35365.31005684257
14112.399710702863,4934.16994025349,-26465.091283928312,-33520.553531712714,-38132.45602040959,-37195.5826515654,-26454.541260545408,-35281.98275351319
14200.152659434398,4870.400413322498,-26549.089139591353,-33624.89147483009,-37961.88985847114,-37285.34725729791,-26408.004928589457,-35309.408343959854
14204.578304836548,4844.159465331968,-26600.78872451648,-33661.86126015917,-38113.054706222385,-37330.22956016416,-26530.40308122672,-35393.361496133984
14114.813699104036,4902.028131726758,-26547.21159305711,-33577.01403820682,-38319.070734866946,-37258.1451842958,-26608.8800560093,-35390.76869377717
14114.74664387067,4957.348699253643,-26469.829853752835,-33516.798438644226,-38181.80867216691,-37192.92279397521,-26488.33709816183,-35298.52304441012
14213.429595640851,4909.963001008392,-26516.410889197698,-33596.39300064957,-37961.39812009312,-37258.547515695995,-26397.32079473982,-35291.32578269551
14244.476168689273,4871.473297056353,-26593.613814546326,-33654.932219378024,-38065.087862621294,-37318.85252223641,-26500.921130290168,-35375.100120914
14173.37526957694,4932.605318141618,-26528.92786609267,-33564.69822701195,-38273.47317617812,-37247.773974868534,-26581.34270684036,-35378.60934479348
14134.326772013519,4977.644083219062,-26469.025190952445,-33501.64395590353,-38212.13998939276,-37179.35528509084,-26497.65777559969,-35296.84666357597
14209.249819427709,4930.012515784802,-26510.778249594958,-33577.57283181821,-37991.72943731897,-37241.18021025422,-26403.713393654038,-35285.782550070595
14259.58594794106,4880.123422160557,-26576.20180561564,-33648.89724837509,-38017.61275739822,-37315.34329835693,-26467.080589184832,-35361.66672249636
14195.883476243434,4928.02321052828,-26542.182450554665,-33583.25017490985,-38247.05341423195,-37265.0965768214,-26574.257203848032,-35386.54421407512
14138.439492993295,4982.136783854578,-26473.0485049544,-33502.82859835966,-38243.767707797015,-37185.45731132714,-26520.791831110935,-35313.05167830607
14193.849467498001,4943.222396757888,-26497.076630243857,-33558.99853217584,-38008.85087357174,-37224.21523621264,-26403.869855865225,-35276.86420403292
14260.658831674915,4887.5665530641745,-26577.20763411613,-33649.32193151974,-37989.36015240671,-37308.61542327588,-26445.37704531873,-35344.47823101023
14207.864011271478,4912.175823709467,-26574.257203848032,-33611.48042815691,-38221.818294741905,-37278.395864772305,-26569.853910190333,-35388.06413269808
14136.673705181325,4977.219400074411,-26486.124275460756,-33516.84314213313,-38270.58980114339,-37191.3805236078,-26547.502165735026,-35325.68041392331
14182.204208636787,4964.590664457162,-26481.877444014248,-33542.97233140139,-38052.97321712652,-37206.9820412376,-26420.56660897334,-35272.88559351988
14260.43531423036,4895.166146178978,-26573.184320114175,-33642.43759422751,-37973.73628303246,-37299.026524904555,-26428.166202088145,-35325.72511741223
14227.645305114425,4907.146681207023,-26579.845139961857,-33621.96339630645,-38183.52975648997,-37291.13635911183,-26551.54783148144,-35383.61613555147
14145.167368074342,4972.771402927805,-26497.27779594395,-33525.42621200397,-38287.21949901814,-37199.71772428963,-26552.687770448658,-35333.458820993765
14172.190627120808,4978.426394274998,-26472.936746232124,-33517.93837761145,-38086.3890750872,-37189.0782939289,-26424.09818459728,-35263.43080561529
14260.614128186004,4915.126253977568,-26555.369979783296,-33618.34241370468,-37961.24165788194,-37277.45709150518,-26406.060326821844,-35303.17220725682
14244.163244266898,4898.92123924747,-26578.88401495028,-33632.424012711526,-38137.306348956394,-37298.3559725709,-26528.97256958158,-35375.45774882528
14144.60857446296,4952.341908495654,-26511.49350541753,-33536.17740108698,-38302.86572013685,-37220.70601233316,-26575.195977115152,-35353.28481832562
14149.458903009761,4969.84332440416,-26462.38672284922,-33509.40001122952,-38136.3005204559,-37186.1278636608,-26453.75894948947,-35276.28305867709
14230.14870049342,4901.7152073043835,-26531.364206238297,-33601.60095710766,-37954.84905896772,-37267.979951856134,-26398.66189940714,-35295.214986230734
14230.416921426884,4865.751250475794,-26573.899575936746,-33631.61934991114,-38088.31132511036,-37298.62419350436,-26505.9055693037,-35364.7959667201
14146.12849308592,4921.943536036437,-26523.76461312349,-33543.24055233486,-38286.10191179537,-37225.55634087996,-26572.960802669622,-35356.19054510481
14104.822469332514,4928.559652395207,-26463.437254838616,-33493.35145871061,-38172.13036681776,-37176.51661354502,-26472.936746232124,-35280.70870407924
14164.836903195013,4854.038936381214,-26517.77434560947,-33575.82939575069,-37964.52736431687,-37246.254056245576,-26392.582224915295,-35279.16643371182
14162.937004916312,4783.385072157988,-26601.50398033905,-33637.877838358625,-38060.93043815261,-37306.87198720837,-26493.34388891982,-35362.98547541922
14060.83423624447,4798.941886298881,-26554.565316982906,-33558.77501473129,-38280.849251848376,-37241.761355610055,-26584.65076501975,-35372.23909762372
13983.653662640294,4814.766921373239,-26458.89985071419,-33481.92971729395,-38212.56467253741,-37171.33100883139,-26491.220473196565,-35288.68827684978
14025.518480005085,4740.067391403602,-26509.81712458338,-33548.42615704848,-37985.15802444911,-37224.84108505739,-26391.486989436984,-35269.04109347357
14046.238547115154,4660.137553231425,-26611.584617088392,-33643.398719239085,-38031.873170360705,-37309.68830700974,-26475.395438122207,-35357.06226313856
13956.786865805016,4676.029643539148,-26558.610982729315,-33575.0247329503,-38252.77546081251,-37259.12866105183,-26582.504997552038,-35384.86783324097
13871.425553730198,4707.746768921229,-26493.09801973081,-33498.470008190874,-38254.56360036893,-37185.569070049416,-26526.29036024694,-35316.35973648545
13929.674199780728,4681.550524419609,-26505.0562030144,-33540.290122066755,-38014.01412654092,-37212.83819828489,-26398.66189940714,-35269.421073129306
13973.081287512934,4595.5410117555875,-26586.908291209733,-33644.315140761755,-37991.86354778571,-37304.32388834046,-26441.979580161522,-35339.270274552146
13908.66355999274,4600.659561235852,-26590.328108111396,-33617.381288693105,-38224.500504076546,-37288.49885326611,-26567.126997366788,-35395.730781046244
13835.819224812893,4666.552503890098,-26514.689804874637,-33527.03553760476,-38284.71610363914,-37200.27651790101,-26544.507031978017,-35340.38786177491
13881.75205966855,4663.155038732892,-26511.158229250697,-33557.81388971971,-38057.28710380639,-37207.026744726514,-26412.028242591412,-35282.899175035855
13966.107543242877,4610.583735774009,-26600.162875671733,-33656.049806600786,-37971.076425442276,-37305.24030986313,-26416.722108927028,-35341.773669931135
13948.248499423087,4625.805273748073,-26599.22410240461,-33638.86131511466,-38176.108977330805,-37300.09940863841,-26532.77236613898,-35402.592766594025
13870.442076974163,4695.900344359916,-26512.92401706267,-33542.391186045556,-38282.05624604896,-37204.45629411415,-26534.336988250852,-35353.843611937
13907.009530903046,4718.74382719324,-26484.559653348882,-33537.18322958746,-38087.12668265423,-37189.324163117904,-26405.41212623264,-35284.93318378129
14004.843116383925,4665.993710278715,-26569.004543901032,-33655.0439781003,-37954.625541523164,-37285.43666427573,-26380.624041631705,-35330.84366689249
13999.031662825546,4653.499085128198,-26613.484515367094,-33678.26744058936,-38139.69798561311,-37315.47740882366,-26503.804505324904,-35414.50624638871
13935.977391717124,4743.666022260907,-26529.039624814945,-33570.01794219231,-38291.35457174237,-37219.02963149901,-26537.53328770796,-35379.39165584942
13958.306784427976,4790.336464683588,-26482.3021271589,-33543.30760756822,-38136.63579662273,-37181.098721158356,-26417.057385093856,-35301.11584676693
14058.666117032304,4744.068353661103,-26558.476872262585,-33644.06927157274,-37965.77906200637,-37267.42115824475,-26367.391808914163,-35328.139105813396
14086.382280156886,4732.691315733351,-26601.861608250336,-33679.56384176777,-38095.62034554724,-37303.29570809552,-26474.635478810727,-35406.59372885153
14015.974285122667,4810.6765521379175,-26536.259238274008,-33589.55336684625,-38289.25350776357,-37223.27646294552,-26538.02502608598,-35396.28957465763
14006.787718151536,4863.381965563532,-26477.228281167543,-33538.323168554685,-38183.2615355565,-37168.13470937427,-26438.51505977095,-35316.09151555199
14104.062510021033,4820.600726676074,-26541.44484298764,-33627.17135276453,-37980.285344157855,-37239.14620150879,-26366.631849602683,-35319.75720164266
14156.253833324176,4799.254810721256,-26586.64007027627,-33689.93505119503,-38058.20352532906,-37294.46676903567,-26450.763815732458,-35395.41785662388
14095.524143639106,4862.86787544106,-26533.0629388169,-33611.256910712356,-38265.13597549629,-37229.17732348172,-26529.374900981773,-35400.6034613375
14053.122884407388,4908.800710296716,-26479.552862590896,-33546.19098260295,-38220.164265652216,-37163.39613954975,-26459.86097572577,-35329.94959711428
14127.88946961039,4862.577302763141,-26509.370089694276,-33616.12959100361,-37999.172568222595,-37222.672965845224,-26363.63671584567,-35313.72223063972
14185.601673793994,4808.396674203476,-26589.143465655266,-33705.20129265801,-38032.320205249816,-37306.82728371946,-26442.314856328354,-35398.614156080985
14138.84182439349,4867.338224332121,-26557.69456120665,-33638.74955639238,-38260.844440560875,-37256.379396483826,-26554.654723960728,-35427.20203723932
14091.769050570614,4935.488693176352,-26456.41880707965,-33545.29691282474,-38248.93096076619,-37166.72654947359,-26495.132028476244,-35346.176963588834
14151.671725710838,4911.34880916462,-26483.777342292946,-33598.49406462837,-38023.40185921214,-37202.958727235644,-26384.04385853337,-35309.475399193216
14221.900906789411,4853.05545962518,-26578.816959716914,-33695.16535939758,-37989.583669851265,-37294.48912078013,-26414.263417036942,-35376.597687792506
14177.398583578895,4877.776488992749,-26571.93262242468,-33661.81655667026,-38213.68225976018,-37272.83028040294,-26538.472060975084,-35425.36919419398
14113.919629325823,4953.414792229509,-26466.23122289553,-33559.80319497624,-38267.59466738637,-37176.38250307828,-26519.227208999066,-35362.69490274131
14156.633812979915,4942.283623490765,-26460.643286781706,-33577.84105275167,-38053.19673457107,-37188.430093339695,-26395.26443424993,-35305.496788680175
14225.074854502065,4864.656014997485,-26571.574994513394,-33695.120655908664,-37977.5137278454,-37295.83022544745,-26417.57147521633,-35371.45678656778
14207.10405196,4879.072890171157,-26579.845139961857,-33678.73682722292,-38183.19448032314,-37291.6504492343,-26545.758729667516,-35434.04167104264
14141.300516283574,4961.50612372233,-26479.977545735546,-33561.63603802157,-38290.549908941975,-37185.99375319407,-26548.083311090864,-35372.90964995738
14159.561891503561,4966.177638313489,-26458.89985071419,-33558.55149728674,-38096.64852579219,-37172.895630943254,-26417.95145487207,-35299.551224655064
14234.596697640027,4890.941666476925,-26554.364151282807,-33670.936068408024,-37961.956913704504,-37270.639809446315,-26396.13615228369,-35340.9913588752
14232.897965061424,4885.376082107554,-26583.287308607974,-33684.1012458922,-38135.96524428907,-37292.0527806345,-26518.981339810056,-35414.32743243306
14157.125551357933,4956.40992598652,-26491.220473196565,-33576.34348587316,-38287.97945832962,-37197.795474266466,-26554.900593149734,-35381.068036683566
14147.961336131257,4972.6819959499835,-26463.839586238813,-33553.67881699548,-38142.84958158131,-37167.06182564042,-26446.226411608033,-35306.8825968364
14231.467453416284,4909.918297519481,-26544.328218022376,-33644.91863786204,-37965.42143409508,-37248.60098941338,-26391.308175481343,-35323.98168134471
14253.036886815655,4884.526715818252,-26584.583709786384,-33682.78249296934,-38096.11208392526,-37298.31126908198,-26502.172827979666,-35404.24679568372
14182.539484803616,4957.974548098391,-26504.832685569847,-33579.80800626374,-38289.789949630496,-37209.59719533887,-26565.092988621356,-35387.19241466432
14159.874815925934,4998.498260795863,-26431.586018989805,-33525.56032247071,-38171.4598144841,-37147.92873238668,-26455.792958234902,-35297.248994976166
14225.119557990976,4933.007649541813,-26513.236941485044,-33618.94591080498,-37975.680884800066,-37232.84300957239,-26389.050649291356,-35307.19552125878
14264.279814276673,4891.992198466325,-26587.288270865476,-33685.352943581696,-38058.96348464054,-37299.76413247158,-26481.09513295831,-35392.22155716676
14194.654130298393,4945.3905159700535,-26528.816107370392,-33611.50277990136,-38270.74626335457,-37238.498000919586,-26571.97732591359,-35403.509188116695
14151.85053966648,4995.994865416868,-26452.03786516641,-33540.08895636666,-38219.09138191836,-37164.49137502806,-26492.226301697054,-35321.634748176904
14219.017531754678,4945.83755085916,-26494.707345331593,-33611.234558967895,-37994.545757120344,-37219.02963149901,-26387.866006835226,-35300.42294268882
14269.15249456793,4886.292503630221,-26587.26591912102,-33700.99916470041,-38019.95969056603,-37305.37442032986,-26453.311914600363,-35378.92226921586
14210.18859269483,4936.472169932386,-26542.830651143868,-33628.06542254274,-38248.729795066094,-37259.77686164103,-26567.30581132243,-35411.24289169823
14149.838882665503,4985.131917611589,-26441.33137957232,-33531.416479518,-38244.77353629751,-37162.59147674936,-26511.06882227288,-35328.54143721359
14201.67257805736,4967.474039491897,-26469.069894441356,-33576.276430639795,-38017.3221847203,-37195.24737539856,-26393.543349926873,-35286.542509382074
14257.730753151269,4881.911561716982,-26560.265011819007,-33671.13723410812,-37980.39710288013,-37285.99545788711,-26434.827021935824,-35358.0457398946
14203.81834552507,4893.936800233937,-26542.517726721493,-33628.26658824284,-38200.9641171651,-37258.27929476253,-26555.50409025003,-35406.660784084896
14106.543553655572,4946.97748982638,-26466.566499062363,-33533.7634126858,-38280.17869951471,-37177.36597983432,-26548.843270402347,-35356.01173114917
14120.021655562123,4902.765739293783,-26480.536339346927,-33560.630209521085,-38073.38035981421,-37192.40870385274,-26432.70360621257,-35306.83789334749
14176.19158937831,4804.708636368351,-26561.427302530683,-33653.36759726615,-37970.51763183089,-37275.668951948755,-26428.389719532697,-35353.82126019255
14132.873908623924,4790.4258716614095,-26568.110474122823,-33634.25685575687,-38164.776642891964,-37272.807928658476,-26550.027912858477,-35411.466409142784
14012.085081587444,4831.418970992443,-26510.1076972613,-33538.3678720436,-38303.759789915064,-37189.63708754028,-26581.946203940657,-35380.30807737209
13981.82081959496,4788.883601293994,-26514.33217696335,-33548.87319193759,-38138.02160477896,-37184.96557294912,-26473.71905728806,-35321.925320854825
14048.294907605043,4682.154021519902,-26567.864604933813,-33647.33262626322,-37976.64200981164,-37271.623286202346,-26438.738577215503,-35353.75420495918
14020.601096224917,4645.184236190825,-26600.989890216577,-33667.583306739725,-38127.806857562886,-37296.031391147546,-26548.597401213337,-35423.491647659735
13908.440042548185,4688.568972178576,-26539.500241220027,-33569.21327939192,-38305.860853893864,-37208.74782904957,-26602.35334662835,-35400.491702615225
13884.188399814178,4700.54950720662,-26498.52949363345,-33538.054947621225,-38161.73680564604,-37167.62061925181,-26489.633499340238,-35321.03125107661
13945.43217962172,4618.630363777919,-26572.424360802695,-33645.56683845125,-37972.238716153945,-37257.65344591778,-26425.61810322024,-35339.91847514135
13953.344697158898,4578.374872013912,-26624.36981491683,-33681.083760390735,-38089.853595477776,-37300.837016205434,-26526.357415480306,-35416.24968245622
13861.45667570313,4632.957831973771,-26558.72274145159,-33596.23653843839,-38301.23404279161,-37233.312396205954,-26609.282387409497,-35416.719069089784
13835.014562012502,4675.157925505391,-26489.38763015123,-33535.037462119755,-38197.18667235216,-37167.732377974084,-26504.072726258368,-35329.59196920299
13906.495440780574,4615.925802698827,-26547.479813990572,-33621.873989328626,-37975.189146422046,-37237.916855563744,-26410.150696057168,-35320.83008537651
13932.89285098229,4557.051307803548,-26634.27163771053,-33700.32861236675,-38054.94017063858,-37314.739801256634,-26505.570293136872,-35409.231234697254
13865.949376338647,4605.599296760475,-26573.9219276812,-33620.0858497722,-38270.209821487646,-37246.65638764577,-26594.798457002456,-35418.99894702422
13826.811471797404,4663.646777110908,-26495.847284298812,-33546.59331400315,-38231.45189660214,-37171.75569197604,-26521.216514255586,-35338.353853029475
13898.1805918432,4632.823721507039,-26537.890915619246,-33612.79918107977,-38009.11909450521,-37228.08208800341,-26419.85135315077,-35316.76206788565
13957.211548949666,4586.197982573269,-26614.9820822456,-33701.93793796753,-38018.104495776235,-37308.7048302537,-26477.027115467445,-35388.08648444253
13906.003702402557,4630.499140083688,-26587.69060226567,-33653.50170773288,-38247.38869039878,-37269.522222223546,-26587.332974354384,-35423.3128337041
13851.845425587348,4701.711797918296,-26511.784078095447,-33569.45914858093,-38272.1320715108,-37192.16283466373,-26543.30003777743,-35357.37518756094
13914.139737384288,4698.537850205642,-26526.178601524665,-33612.06157351274,-38046.82648740131,-37225.84691355788,-26426.9368561431,-35313.58812017299
13986.201761508199,4625.5370528146095,-26621.732309071103,-33715.79601952982,-38008.537949149366,-37320.43949609274,-26463.057275182877,-35382.587955306524
13961.257214696076,4652.87323628345,-26611.11523045483,-33681.93312668004,-38225.9757192106,-37298.64654524881,-26586.327145853895,-35431.538275663646
13914.363254828842,4751.712650264818,-26520.836534599846,-33575.717637028414,-38298.238909034604,-37200.27651790101,-26571.217366602108,-35369.847460967
13971.091982256412,4765.526028338198,-26508.58777863834,-33589.79923603526,-38087.35020009878,-37202.10936094634,-26443.879478440223,-35306.41321020284
14058.420247843296,4706.673885187374,-26586.1259801538,-33690.918527951064,-37975.256201655415,-37289.90701316679,-26436.011664391957,-35349.261504323666
14052.944070451746,4724.488225518254,-26595.021974447012,-33680.99435341291,-38173.04678834043,-37292.96920215717,-26563.975401398588,-35414.03685975514
13983.564255662473,4805.915630568938,-26515.40506069721,-33582.40080862055,-38304.65385969327,-37204.165721436235,-26583.30966035243,-35373.89312671341
14008.598209452417,4825.205186033868,-26494.05914474239,-33576.298782384256,-38126.197531962105,-37191.425227096704,-26461.93968796011,-35307.06141079204
14103.637826876382,4764.117868437514,-26568.311639822918,-33674.04296088731,-37965.689655028546,-37280.228707817645,-26421.08069909581,-35335.38107101692
14110.857440335447,4756.764144511717,-26606.287253652485,-33694.51715880837,-38122.151866215696,-37308.950699442714,-26534.04641557293,-35408.06894398558
14036.962573166202,4833.184758804412,-26524.792793368437,-33595.163654704535,-38297.63541193431,-37225.198712968675,-26586.50595980954,-35388.42176060936
14047.914927949301,4872.613236023573,-26462.923164716147,-33553.45529955093,-38150.717395629574,-37180.65168626925,-26471.930917731635,-35305.56384391354
14144.9885541187,4817.337371985599,-26538.315598763897,-33644.76217565086,-37960.21347763699,-37259.70980640767,-26404.249835520965,-35315.01863181814
14176.392755078406,4789.934133283393,-26595.804285502945,-33689.91269945058,-38085.226784375525,-37309.88947270983,-26512.879313573758,-35396.26722291318
14104.084861765488,4854.217750336856,-26534.06876731739,-33601.06451524073,-38284.20201351667,-37233.02182352803,-26585.54483479796,-35391.3051356441
14090.495001136662,4913.941611521436,-26465.493615328505,-33535.90918015351,-38186.92722164717,-37168.73820647457,-26486.01251673848,-35305.45208519126
14167.56381601856,4862.689061485417,-26522.423508456173,-33625.87495158613,-37972.21636440949,-37242.5883701549,-26398.639547662682,-35300.91468106683
14218.503441632205,4823.484101710809,-26584.248433619552,-33693.936013452534,-38038.3775279972,-37316.32677511296,-26484.805522537892,-35383.97376346275
14165.194531106297,4885.599599552107,-26528.234962014554,-33608.66410835554,-38254.027158502,-37252.37843422633,-26577.63231726078,-35395.82018802407
14122.167423029832,4941.724829879383,-26455.90471695718,-33535.75271794233,-38218.6219952848,-37179.51174730203,-26510.040642027932,-35319.75720164266
14193.871819242457,4904.442120127931,-26500.63055761225,-33599.499893128865,-37993.629335597674,-37227.858570558856,-26404.719222154527,-35292.89040480738
14258.066029318099,4848.562758989663,-26578.88401495028,-33686.96226918248,-38002.97236478,-37314.09160066743,-26469.181653163632,-35370.94269644531
14208.42280488286,4888.773547264761,-26542.405967999217,-33629.45123069897,-38229.75316402354,-37274.50666123708,-26585.03074467549,-35406.303156173606
14152.65520246687,4958.622748687595,-26456.57526929084,-33533.24932256333,-38249.40034739976,-37183.51270955953,-26537.645046430236,-35333.6376349494
14201.04672921261,4937.545053666241,-26471.37212412025,-33569.45914858093,-38025.25705400194,-37208.92664300521,-26418.75611767246,-35286.25193670415
14270.873578890989,4872.434422067931,-26567.797549700448,-33669.840832929716,-37974.138614432646,-37304.21212961819,-26450.316780843354,-35352.32369331404
14232.808558083601,4889.488803087331,-26572.31260208042,-33644.20338203948,-38206.26148060101,-37290.33169631144,-26579.152235883743,-35410.48293238675
14154.778618190125,4956.588739942163,-26489.544092362416,-33545.92276166949,-38285.05137980597,-37198.421323111215,-26573.96663117011,-35353.55303925908
14201.158487934887,4959.338004510165,-26460.687990270617,-33551.98008441688,-38062.11508060874,-37193.16866316422,-26440.14673711619,-35285.290811692576
14289.246712833252,4904.397416639021,-26533.286456261452,-33645.61154194016,-37947.83061120875,-37277.211222316175,-26422.80178341887,-35320.80773363206
14263.072820076088,4898.250686913811,-26567.819901444902,-33649.411338497564,-38148.66103513969,-37291.829263189946,-26548.150366324233,-35390.34401063252
14188.753269762192,4971.542056982763,-26478.725848046048,-33545.36396805811,-38279.91047858125,-37197.0802184439,-26563.39425604275,-35346.46753626675
14199.929141989845,4975.6771297069945,-26457.111711157766,-33540.93832265596,-38104.40458111818,-37182.43982582567,-26452.373141333243,-35281.423959901804
14277.668509205403,4902.2069456824,-26544.752901167027,-33645.209210539964,-37950.7586897324,-37274.32784728144,-26414.397527503676,-35313.945748084276
14274.092230092554,4879.452869826898,-26595.647823291758,-33676.747521966405,-38113.43468587812,-37312.7057925112,-26531.565371938395,-35393.853234512004
14201.650226312904,4950.59847242814,-26504.162133236186,-33578.086921940674,-38292.60626943186,-37227.09861124738,-26588.271747621508,-35375.70361801429
14189.200304651298,4973.665472706017,-26451.94845818859,-33540.424232533485,-38150.76209911849,-37180.62933452479,-26473.204967165588,-35292.51042515164
14263.564558454103,4905.291486417233,-26530.425432971173,-33628.73597487641,-37958.42533808057,-37258.94984709619,-26407.446134978072,-35300.110018266445
14282.83176217458,4866.600616765096,-26591.512750567526,-33683.22952785844,-38073.93915342559,-37315.92444371276,-26515.29330197493,-35384.30903962959
14202.611351324482,4919.283678446255,-26526.513877691494,-33587.2287854229,-38278.882298336306,-37233.20063748368,-26592.585634301384,-35377.17883314834
14158.109028113966,4947.223359015388,-26454.205984378576,-33523.05692709171,-38189.49767225953,-37165.296037828455,-26496.8531127993,-35290.185843728286
14230.9086598049,4896.104919446101,-26492.405115652695,-33591.34150640268,-37961.28636137085,-37223.00824201205,-26398.304271495854,-35273.77966329809
14259.362430496507,4833.944718115892,-26582.035610918476,-33668.03034162883,-38024.49709469046,-37305.9555656857,-26490.1028859738,-35362.56079227457
14170.402487564385,4846.037011866214,-26559.14742459624,-33611.07809675671,-38266.790004585986,-37262.548477953496,-26607.583654830894,-35397.697734558315
14096.529972139595,4889.041768198224,-26472.266193898464,-33526.02970910427,-38235.94459723766,-37180.78579673598,-26531.498316705027,-35316.47149520773
14140.294687783085,4827.440360479398,-26510.644139128228,-33586.51352960033,-38012.98594629597,-37221.82359955592,-26424.835792164304,-35287.01189601563
14174.224635866241,4734.211234356312,-26581.677983007194,-33667.2480305729,-38002.63708861316,-37299.87589119386,-26477.47415035655,-35356.43641429382
14083.253035933143,4731.327859321578,-26572.0220294025,-33617.29188171529,-38233.73177453659,-37270.61745770186,-26597.34655587036,-35400.29053691513
13981.284377728032,4760.586292813575,-26481.542167847416,-33520.844104390635,-38262.61022837284,-37181.366942091816,-26554.364151282807,-35330.48603898121
13999.121069803366,4711.904193389916,-26505.838514070336,-33564.38530258957,-38040.545647209365,-37208.81488428293,-26435.00583589147,-35285.626087859404
14050.843006472947,4629.672125538841,-26608.8800560093,-33665.61635322766,-37987.86258552821,-37306.26849010807,-26462.207908893575,-35351.831954936024
14009.022892597068,4642.412619878366,-26576.246509104552,-33629.831210354714,-38191.17405309368,-37283.089731107924,-26578.50403529454,-35398.77061829217
13915.033807162501,4692.189954780335,-26492.94155751962,-33528.756621927816,-38276.356551212855,-37187.871299728315,-26571.50793928003,-35339.963178630256
13923.0357316775,4669.6817481138405,-26489.85701678479,-33544.201677346435,-38081.024656417925,-37192.609869552834,-26452.551955288884,-35281.20044245725
14001.065671570977,4594.713997210741,-26592.228006390098,-33663.06825435976,-37980.88884125815,-37298.31126908198,-26459.011609436468,-35341.41604201985
13979.742107360615,4589.327226797012,-26616.479649124107,-33668.05269337329,-38169.3587505053,-37316.19266464623,-26585.746000498057,-35414.39448766643
13905.914295424736,4671.939274303827,-26520.948293322122,-33551.91302918351,-38300.29526952449,-37213.55345410746,-26596.60894830334,-35367.992266177214
13919.392397331287,4685.5291349326535,-26490.326403418352,-33539.82073543319,-38119.000270247496,-37187.13369216129,-26469.449874097096,-35288.017724516125
14008.844078641425,4624.084189425014,-26576.984116671578,-33648.18199255252,-37964.08032942776,-37281.92744039625,-26434.827021935824,-35320.20423653177
14026.971343394678,4615.903450954372,-26607.516599597526,-33668.365617795665,-38109.03139222043,-37315.23153963465,-26546.473985490084,-35394.52378684566
13951.824778535936,4685.573838421565,-26535.365168495795,-33573.9742009609,-38294.19324328819,-37230.25020721558,-26604.07443095141,-35377.17883314834
13956.33983091591,4741.162626881913,-26480.581042835838,-33526.47674399337,-38163.68140741366,-37182.618639781314,-26490.639327840727,-35292.26455596263
14037.25314584412,4681.103489530503,-26561.673171719693,-33641.05178607128,-37983.70516105952,-37277.05476010499,-26436.79397544789,-35313.118733539435
14087.902198779846,4666.440745167822,-26610.377622887805,-33687.029324415846,-38077.64954300517,-37325.26747289509,-26529.48665970405,-35385.22546115225
14018.075349101468,4725.985792396759,-26550.989037870055,-33597.197663449966,-38282.078597793414,-37252.33373073742,-26601.414573361228,-35380.151615160896
13993.175505778254,4776.344272654566,-26486.280737671943,-33538.68079646597,-38212.47526555959,-37191.000543952054,-26520.590665410837,-35304.93799506879
14085.287044678575,4743.2860426051675,-26532.72766265007,-33618.8341520827,-37990.45538788502,-37253.585428426915,-26432.860068423757,-35292.93510829629
14136.807815648059,4704.5504694641195,-26615.27265492352,-33694.360696597185,-38042.84787688826,-37334.69990905523,-26510.554732150405,-35376.21770813676
14082.068393477011,4766.487153349776,-26561.20378508613,-33624.377384707615,-38258.49750739307,-37280.38517002883,-26602.30864313944,-35394.2555659122
14048.518425049595,4844.941776387904,-26475.216624166565,-33531.34942428463,-38236.99512922706,-37191.40287535225,-26535.365168495795,-35311.82233236102
14122.256830007653,4819.729008642317,-26504.29624370292,-33587.049971467255,-38005.92279504809,-37230.83135257141,-26426.109841598256,-35274.13729120938
14180.527827802638,4755.8477229890495,-26594.329070368894,-33683.60950751418,-37998.881995544674,-37321.51237982659,-26478.122350945756,-35349.48502176822
14141.188757561298,4803.2781247232115,-26573.36313406982,-33631.574646422225,-38227.02625119999,-37287.53772825452,-26594.865512235825,-35388.91349898738
14085.93524526778,4882.135079161534,-26475.171920677654,-33523.369851514086,-38255.2788561915,-37194.06273294243,-26550.385540769763,-35314.169265528835
14140.629963949916,4871.830924967638,-26481.2515951695,-33558.171517630995,-38035.315339006826,-37214.55928260795,-26433.95530390207,-35272.1256342084
14218.212868954286,4809.134281770502,-26568.624564245292,-33663.55999273777,-37976.105567944716,-37312.21405413318,-26461.0456181819,-35339.78436467461
14199.750328034203,4834.3917530049985,-26562.231965331077,-33629.92061733254,-38183.50740474551,-37290.93519341174,-26579.755732984035,-35387.46063559778
14128.001228332667,4908.219564940878,-26474.65783055518,-33528.890732394546,-38268.84636507587,-37195.336782376384,-26571.55264276894,-35327.24503603519
14160.768885704147,4915.036846999747,-26465.42656009514,-33539.10547961062,-38070.42992954611,-37193.816863753425,-26448.12630988673,-35263.766081782116
14246.286659990152,4849.278014812233,-26551.078444847877,-33639.46481221495,-37952.34566358873,-37288.85648117739,-26438.403301048675,-35308.69308813728
14231.825081327568,4844.204168820878,-26573.78781721447,-33643.77869889483,-38136.52403790045,-37302.78161797304,-26556.956953639623,-35377.96114420428
14159.360725803463,4927.978507039369,-26485.744295805016,-33534.5680754862,-38275.663647134745,-37208.50195986056,-26581.387410329273,-35340.164344330355
14171.184798620321,4945.971661325892,-26454.653019267684,-33514.94324385443,-38109.25490966498,-37179.73526474658,-26465.784188006426,-35264.92837249379
14253.43921821585,4878.894076215515,-26536.415700485195,-33625.38321320811,-37951.4068903216,-37273.45612924769,-26431.31779805634,-35297.02547753161
14271.767648669202,4873.261436612777,-26568.44575028965,-33646.32679776273,-38088.19956638808,-37301.70873423919,-26530.894819604735,-35365.1982981203
14193.670653542358,4937.209777499411,-26491.10871447429,-33540.15601160002,-38263.59370512888,-37218.068506487434,-26574.681886992683,-35341.57250423104
14177.465638812262,4965.082402835179,-26440.236144094008,-33500.32520298066,-38137.7533838455,-37173.56618327692,-26470.52275783095,-35264.92837249379
14251.360505981507,4896.216678168378,-26524.479868946062,-33604.99842226486,-37953.28443685585,-37261.00620758608,-26412.162353058142,-35281.78158781309
14277.512046994216,4859.068078883658,-26578.92871843919,-33659.64843745809,-38049.55340022485,-37318.56194955849,-26510.957063550602,-35363.27604809714
14208.065176971577,4916.892041789537,-26520.747127622024,-33574.01890444981,-38263.213725473135,-37248.064547546455,-26594.798457002456,-35366.27118185415
14170.00015616419,4959.047431832246,-26460.509176314972,-33512.68571766445,-38201.67937298767,-37186.820767738915,-26512.34287170683,-35290.90109955086
14250.019401314188,4914.656867344006,-26492.0027842525,-33577.483424840386,-37967.343684118234,-37240.2414369871,-26414.330472270307,-35270.963343496725
14312.559582300137,4884.102032673602,-26556.956953639623,-33643.44342272799,-38003.8217310693,-37305.664993007784,-26479.709324802083,-35338.57737047403
14243.068008788588,4922.748198836827,-26531.00657832701,-33574.465939338916,-38234.04469895896,-37256.80407962848,-26589.322279610908,-35365.17594637584
14180.863103969468,4972.257312805333,-26457.0446559244,-33499.69935413592,-38229.35083262334,-37181.098721158356,-26535.029892328967,-35295.66202111984
14240.542261665138,4929.721943106883,-26483.95615624859,-33557.053930408234,-37997.18326296607,-37217.97909950961,-26416.722108927028,-35256.52411657859
14303.93180894039,4873.708471501884,-26571.35147706884,-33649.43369024202,-37983.70516105952,-37310.850597721415,-26465.38185660623,-35329.56961745854
14262.804599142624,4913.941611521436,-26535.34281675134,-33596.281241927296,-38205.07683814488,-37270.9974373576,-26580.023953917498,-35366.62880976544
14189.245008140208,4973.441955261464,-26450.42853956563,-33498.53706342424,-38245.62290258681,-37182.909212459235,-26546.02695060098,-35300.7805706001
14227.041808014132,4946.59751017064,-26465.47126358405,-33527.706089938416,-38028.29689124786,-37201.908195246244,-26424.65697820866,-35252.076119431986
14304.892933951967,4871.361538334077,-26536.30394176292,-33626.14317251959,-37942.62265475067,-37290.62226898936,-26433.530620757418,-35305.496788680175
14270.15832306842,4878.983483193336,-26541.48954647655,-33604.99842226486,-38156.01475906548,-37281.56981248496,-26559.616811229804,-35363.23134460823
14173.978766677234,4937.790922855249,-26467.348810118296,-33504.43792396044,-38260.86679230533,-37190.35234336285,-26560.890860663756,-35312.89521609488
14193.76006052018,4936.181597254467,-26447.075777897335,-33504.2591100048,-38055.163688083136,-37182.03749442548,-26428.680292210614,-35244.09654666144
14260.658831674915,4844.986479876814,-26538.20384004162,-33612.68742235749,-37938.331119815244,-37279.736969439626,-26416.677405438117,-35292.30925945154
14216.178860208853,4808.307267225655,-26569.87626193479,-33617.381288693105,-38129.59499711931,-37300.92642318326,-26548.776215168982,-35371.05445516759
14102.855515820447,4850.127381101534,-26477.742371290016,-33514.67502292097,-38271.327408710415,-37206.400895881765,-26576.514730038016,-35334.218780305244
14074.468800362207,4831.642488436996,-26438.112728370754,-33485.57305164016,-38100.604784560775,-37175.06375015542,-26451.81434772186,-35255.67475028929
14131.353990000964,4745.8117897286165,-26525.01631081299,-33581.3279248867,-37936.02889013635,-37260.33565525242,-26404.36159424324,-35281.93805002428
14104.531896654595,4683.159850020391,-26582.281480107486,-33623.99740505188,-38089.18304314411,-37306.76022848609,-26527.34089223634,-35369.22161212225
13996.125936046355,4723.236527828757,-26512.879313573758,-33526.54379922674,-38268.84636507587,-37223.6340908568,-26590.663384278225,-35355.85526893798
13957.47976988313,4736.871091946494,-26449.065083153855,-33475.15713872399,-38151.61146540779,-37164.69254072816,-26484.58200509334,-35271.388026641376
14011.705101931704,4647.128837958436,-26526.402118969218,-33578.31043938523,-37951.630407766155,-37250.12090803634,-26417.79499266088,-35283.83794830298
14029.675904473772,4600.525450769121,-26584.78487548648,-33631.596998166686,-38041.596179198765,-37301.93225168374,-26510.979415295056,-35362.06905389656
13943.778150532025,4643.373744889945,-26530.291322504443,-33555.086976896164,-38254.831821302396,-37237.33571020791,-26592.40682034574,-35365.33240858703
13893.307911551943,4682.891629086927,-26478.748199790505,-33496.54775816772,-38200.718247976096,-37180.98696243608,-26519.808354354904,-35295.81848333102
13965.436990909218,4639.171616932347,-26522.132935778256,-33564.966447945415,-37974.138614432646,-37237.20159974117,-26420.56660897334,-35277.13242496639
14018.477680501663,4591.115366353437,-26595.26784363602,-33640.738861648904,-38009.49907416094,-37308.79423723152,-26488.113580717276,-35349.03798687911
13952.920014014247,4630.208567405769,-26558.87920366278,-33577.84105275167,-38239.2750071615,-37257.04994881749,-26597.748887270558,-35374.92130695836
13908.171821614722,4703.030550841159,-26476.781246278435,-33495.34076396713,-38231.407193113235,-37178.81884322391,-26543.791776155445,-35300.869977577924
13974.757668347082,4677.616617395475,-26513.10283101831,-33548.22499134839,-38010.66136487262,-37216.950919264666,-26433.441213779595,-35265.710683549725
14050.06069541701,4623.413637091356,-26592.004488945546,-33643.77869889483,-37989.53896636236,-37305.41912381877,-26475.060161955378,-35333.34706227149
14017.24833455662,4662.5738933770535,-26571.105607879832,-33603.36674491963,-38214.30810860492,-37277.05476010499,-26593.591462801873,-35376.91061221488
13962.039525752012,4742.011993171214,-26482.1009614588,-33499.028801802255,-38261.64910336126,-37179.064712412925,-26559.862680418813,-35304.37920145741
14025.898459660824,4750.840932231061,-26475.10486544429,-33517.44663923343,-38037.550513452356,-37188.40774159524,-26426.55687648736,-35243.31423560551
14115.394844459874,4688.367806478477,-26558.49922400704,-33623.818591096235,-37945.9083611856,-37284.207318330686,-26434.00000739098,-35296.57844264251
14088.88567553588,4702.114129318492,-26573.87722419229,-33618.34241370468,-38164.910753358694,-37286.35308579839,-26565.629430488283,-35361.51026028517
14016.622485711872,4781.909857023938,-26496.115505232276,-33517.983081100356,-38274.546059911976,-37196.58848006588,-26570.278593334984,-35313.00697481716
14054.866320474903,4801.847613078072,-26469.673391541648,-33507.09778155062,-38071.525165024424,-37176.80718622293,-26440.482013283017,-35237.39102332485
14153.884548411912,4754.730135766285,-26539.276723775474,-33605.22193970942,-37934.5536750023,-37262.950809353686,-26414.755155414958,-35271.20921268573
14148.341315786996,4754.059583432625,-26575.464198048616,-33623.259797484854,-38114.32875565634,-37290.13053061134,-26534.225229528576,-35346.35577754447
14067.807980514524,4823.372342988532,-26511.24763622852,-33529.024842861276,-38288.3370862409,-37209.86541627233,-26590.238701133574,-35327.870884879936
14078.246245175153,4851.6472997244955,-26474.166092177165,-33505.466104205385,-38129.25972095248,-37176.40485482274,-26475.551900333394,-35253.43957584376
14180.170199891354,4803.7475113567725,-26530.894819604735,-33589.88864301308,-37937.05707038129,-37251.350253981385,-26401.992309330977,-35260.63683755837
14207.796956038113,4797.600781631563,-26568.35634331183,-33615.32492820322,-38059.27640906291,-37289.70584746669,-26504.519761147472,-35335.068146594545
14118.32292298352,4853.502494514286,-26520.277740988466,-33538.323168554685,-38270.18746974319,-37221.44361990019,-26584.65076501975,-35331.31305352605
14100.463879163728,4888.550029820208,-26473.652002054692,-33500.14638902502,-38177.159509320205,-37179.60115427985,-26497.881293044247,-35261.97794222569
14201.449060612806,4844.785314176716,-26505.190313481133,-33575.42706435049,-37947.361224575194,-37242.94599806619,-26407.84846637827,-35258.245200901656
14238.932936064355,4803.14401425648,-26578.615794016816,-33633.42984121202,-38041.93145536559,-37305.97791743016,-26504.609168125295,-35341.88542865341
14170.760115475668,4860.051555639691,-26527.162078280697,-33554.23761060686,-38253.781289312996,-37240.55436140947,-26593.859683735336,-35348.1439171009
14139.691190682792,4917.964925523392,-26445.37704531873,-33480.946240537916,-38188.44714027013,-37169.16288961922,-26508.520723404974,-35265.59892482745
14227.019456269678,4887.946532719914,-26481.81038878088,-33545.386319802565,-37959.65468402561,-37217.35325066486,-26396.80670461735,-35238.91094194781
14280.037794117665,4833.408276248965,-26564.69065722116,-33633.20632376747,-37993.629335597674,-37298.69124873773,-26471.305068886886,-35318.05846906405
14217.67642708736,4873.663768012973,-26529.888991104246,-33573.70598002744,-38225.819256999406,-37254.41244297176,-26588.808189488434,-35352.03312063612
14160.254795581675,4937.232129243866,-26455.81530997936,-33487.070618518665,-38229.66375704572,-37173.9238111882,-26535.812203384903,-35280.1275587234
14218.212868954286,4911.30410567571,-26491.041659240924,-33540.40188078903,-38006.168664237106,-37212.45821862915,-26422.242989807488,-35243.60480828343
14298.477983293295,4859.604520750585,-26556.666380961702,-33621.7845823508,-37966.114338173196,-37292.0527806345,-26457.290525113407,-35303.77570435711
14248.499482691228,4876.971826192359,-26539.522592964484,-33582.423160365004,-38187.10603560282,-37268.18111755623,-26572.625526502794,-35350.8931816689
14179.007909179678,4945.971661325892,-26451.85905121077,-33478.33108643664,-38243.29832116346,-37174.25908735503,-26543.858831388814,-35286.11782623742
14223.9572672793,4938.617937400096,-26453.602487278284,-33498.04532504622,-38024.98883306847,-37183.35624734834,-26418.957283372558,-35229.8137819545
14305.764651985724,4879.698739015906,-26532.61590392779,-33593.71079131494,-37932.6537767236,-37273.81375715897,-26425.37223403123,-35283.21209945823
14264.25746253222,4875.273093613755,-26566.076465377388,-33599.924576273515,-38157.244105010526,-37287.29185906552,-26569.675096234692,-35360.21385910676
14191.703700030292,4955.225283530389,-26466.61120255127,-33490.021048786766,-38265.96299004114,-37188.81007299544,-26574.570128270403,-35310.19065501579
14216.223563697764,4962.2213795449,-26441.599600505782,-33490.42338018696,-38070.83226094631,-37177.589497278874,-26447.209888364065,-35239.73795649266
14307.59749503106,4899.792957281227,-26521.663549144694,-33591.520320358315,-37934.285454068835,-37265.92359136624,-26419.024338605923,-35274.69608482076
14305.094099652064,4892.528640333252,-26547.01042735701,-33603.99259376438,-38102.72820028403,-37284.29672530851,-26533.19704928363,-35345.08172811052
14213.273133429664,4952.6101294291175,-26486.683069072136,-33515.34557525463,-38267.99699878657,-37205.976212737114,-26577.45350330514,-35323.534646455606
14210.81444153958,4970.759745926827,-26449.221545365042,-33494.424342444465,-38121.77188655995,-37176.829537967395,-26460.218603637055,-35251.98671245417
14297.136878625975,4912.5781551096625,-26501.949310535114,-33589.10633195714,-37931.73735520093,-37258.9945505851,-26395.532655183397,-35271.41037838583
14309.899724709956,4885.331378618644,-26554.766482683004,-33626.52315217533,-38068.4853277785,-37301.14994062781,-26504.67622335866,-35355.251771837684
14231.422749927373,4954.621786430095,-26489.67820282915,-33529.941264383946,-38253.5801236129,-37214.76044830805,-26555.369979783296,-35339.247922807685
14209.696854316815,4994.184374115989,-26437.91156267066,-33477.03468525824,-38133.998290777,-37155.841249923855,-26445.064120896357,-35255.38417761138
14283.569369741605,4931.018344285291,-26503.648043113717,-33578.62336380761,-37939.828686693756,-37237.98391079711,-26376.444265418562,-35269.08579696248
14317.633428291492,4891.813384510682,-26561.53906125296,-33645.18685879551,-38028.945091837064,-37300.52409178306,-26468.46639734106,-35352.815431692055
14235.58017439606,4925.7209808493835,-26504.005671025,-33566.285200868275,-38237.88919900527,-37231.99364328309,-26554.25239256053,-35364.39363531991
14178.493819057205,4960.74616441085,-26443.723016229036,-33495.07254303367,-38198.058390385915,-37164.11139537232,-26480.24576666901,-35292.421018173816
14244.565575667093,4909.024227741269,-26494.19325520912,-33568.4756718249,-37978.117224945694,-37219.56607336594,-26379.46175092003,-35277.043017988566
14282.138858096465,4845.679383954929,-26573.36313406982,-33658.284981046316,-38003.68762060256,-37296.7019434812,-26445.0417691519,-35353.95537065928
14208.735729305236,4878.514096559775,-26551.34666578134,-33612.10627700166,-38238.20212342765,-37260.93915235271,-26562.723703709093,-35393.69677230081
14158.17608334733,4945.301108992232,-26440.169088860643,-33492.21151974339,-38224.74637326555,-37154.58955223436,-26488.940595262124,-35306.390858458384
14192.530714575138,4884.34790186261,-26459.90567921468,-33539.708976710914,-37997.563242621814,-37180.15994789123,-26369.135244981677,-35263.43080561529
14236.071912774076,4796.952581042359,-26558.901555407236,-33644.53865820631,-37967.85777424071,-37272.8973356363,-26414.486934481494,-35338.644425707396
14151.381153032919,4774.176153442401,-26559.54975599644,-33618.81180033825,-38191.28581181596,-37253.25015226009,-26542.696540677138,-35393.96499323428
14039.801244712025,4804.261601479245,-26491.399287152206,-33530.991796373346,-38266.74530109707,-37166.324218073394,-26532.101813805322,-35339.51614374115
14053.659326274315,4769.504638851242,-26474.926051488645,-33553.58941001766,-38053.9343421381,-37177.36597983432,-26411.156524557657,-35287.727151838204
14112.17619325831,4681.148193019413,-26555.50409025003,-33658.508498490875,-37955.89959095712,-37268.22582104514,-26412.140001313688,-35339.0914605965
14052.966422196201,4658.952910775293,-26578.25816610553,-33659.11199559116,-38159.389872478234,-37274.908992637276,-26541.154270309722,-35408.1583509634
13942.794673775992,4706.048036342626,-26509.101868760812,-33562.84303222216,-38287.91240309625,-37182.32806710339,-26559.058017618423,-35367.43347256583
13953.992897748101,4709.5349084776535,-26472.310897387375,-33553.1200233841,-38090.36768560025,-37161.74211046006,-26420.1866293176,-35288.5318146386
14026.189032338743,4629.91799472785,-26542.830651143868,-33651.53475422082,-37933.57019824626,-37249.98679756961,-26385.69788762306,-35319.9360155983
14007.34651176292,4598.044407134582,-26585.813055731425,-33675.272306832354,-38110.819531776855,-37281.61451597387,-26514.28747347444,-35403.576243350064
13906.56249601394,4644.11135245697,-26527.273837002977,-33604.84196005368,-38288.49354845209,-37210.02187848352,-26573.027857902987,-35393.76382753418
13892.480897007097,4660.964567776271,-26487.845359783812,-33573.68362828298,-38146.202343249606,-37179.891726957765,-26467.57232756285,-35321.25476852116
13969.1473804888,4595.116328610937,-26558.610982729315,-33659.22375431344,-37962.51570731589,-37256.044120317,-26407.490838466983,-35330.8883703814
13994.717776145671,4574.418613245322,-26606.734288541593,-33690.35973433968,-38085.3385430978,-37292.589222501425,-26506.263197214987,-35402.54806310512
13924.600353789372,4646.30182341359,-26542.137747065754,-33601.668012341026,-38283.91144083875,-37220.169570466234,-26577.87818644979,-35396.91542350238
13901.08631862239,4687.429033211355,-26477.295336400908,-33549.16376461551,-38174.4102447522,-37157.741148202556,-26473.942574732613,-35309.07306779302
13990.225075510154,4642.725544300741,-26531.565371938395,-33634.3909662236,-37962.247486382425,-37225.064602501945,-26390.771733614416,-35303.4851316792
14038.482491789162,4609.041465406593,-26603.73915478458,-33699.56865305527,-38037.10347856325,-37294.131492868844,-26481.653926569692,-35382.587955306524
13982.379613206342,4676.83430633954,-26556.82284317289,-33627.05959404226,-38267.393501686274,-37238.02861428602,-26583.756695241536,-35398.86002526999
13949.030810479024,4739.307432092122,-26483.375010892752,-33550.907200683025,-38222.80177149794,-37161.4738895266,-26503.268063457974,-35313.34225098399
14031.799320197026,4708.439672999343,-26513.996900796523,-33609.96050953394,-37991.08123672977,-37208.770180794025,-26397.36549822873,-35285.96136402623
14101.089728008477,4666.239579467724,-26592.02684069,-33699.65806003309,-38012.0695247733,-37297.93128942625,-26469.96396421957,-35368.819280722055
14061.124808922388,4726.723399963785,-26557.091064106353,-33635.10622204617,-38240.079669961895,-37250.56794292545,-26580.515692295518,-35398.412990380886
14007.547677463017,4791.789328073183,-26472.646173554203,-33549.92372392699,-38248.66273983273,-37166.57008726241,-26528.704348648116,-35322.059431321555
14080.302605665041,4781.172249456912,-26486.57131034986,-33585.84297726667,-38022.7760103674,-37198.24250915558,-26409.45779197905,-35281.245145946166
14166.379173562429,4735.529987279176,-26571.709104980124,-33676.680466733036,-37972.35047487623,-37285.257850320086,-26437.397472548186,-35342.73479494271
14126.593068431983,4754.774839255195,-26571.597346257848,-33659.402568269084,-38205.90385268973,-37276.36185602687,-26577.45350330514,-35402.592766594025
14070.333727637975,4843.645375209496,-26467.795845007404,-33541.83239243417,-38273.74139711158,-37177.70125600115,-26557.135767595264,-35338.28679779611
14122.83797536349,4853.301328814188,-26457.290525113407,-33548.85084019313,-38047.117060079225,-37172.917982687715,-26411.067117579834,-35266.11301494992
14212.803746796102,4791.945790284371,-26543.25533428852,-33653.27819028833,-37936.18535234754,-37266.41532974426,-26402.193475031076,-35312.73875388369
14192.731880275236,4793.465708907332,-26566.098817121845,-33661.011893869865,-38150.382119462745,-37284.36378054188,-26544.082348833366,-35388.37705712045
14108.018768789623,4859.8056864506825,-26485.118446960267,-33566.30755261273,-38285.56546992844,-37197.9295847332,-26568.624564245292,-35352.72602471424
14133.589164446494,4879.452869826898,-26456.687028013115,-33548.42615704848,-38098.81664500435,-37172.0239129095,-26435.89990566968,-35278.562936611524
14231.780377838657,4826.970973845837,-26534.24758127303,-33645.96916985144,-37944.41079430709,-37256.42409997274,-26396.672594150616,-35306.256747991654
14234.95432555131,4820.4219127204315,-26559.885032163267,-33661.59303922571,-38103.93519448462,-37279.736969439626,-26513.661624629694,-35379.25754538269
14150.531786743617,4891.165183921478,-26496.87546454376,-33561.390168832564,-38282.927964082715,-37193.392180608775,-26570.01037240152,-35355.9446759158
14149.078923354022,4917.83081505666,-26456.28469661292,-33530.92474113998,-38145.33062521584,-37157.316465057906,-26462.230260638033,-35277.534756366585
14243.783264611158,4868.746384232805,-26501.077592501355,-33615.995480536876,-37943.8072972068,-37234.11705900634,-26396.896111595168,-35287.257765204646
14266.559692211116,4836.515168728253,-26562.63429673127,-33661.70479794798,-38065.26667657694,-37285.459016020184,-26507.738412349037,-35368.819280722055
14183.098278414998,4889.600561809607,-26508.76659259398,-33579.18215741899,-38279.99988555907,-37215.833332041904,-26595.245491891565,-35370.83093772303
14155.672687968337,4925.83273957166,-26452.70841750007,-33523.12398232508,-38189.05063737043,-37159.93161915918,-26496.8531127993,-35291.862224562436
14238.910584319901,4882.246837883811,-26508.923054805167,-33601.243329196375,-37970.04824519733,-37227.590349625396,-26402.841675620282,-35282.98858201368
14291.146611111953,4850.485009012819,-26570.88209043528,-33662.263591559364,-38027.31341449182,-37289.28116432204,-26481.877444014248,-35360.169155617856
14225.0077992687,4899.904716003503,-26507.805467582402,-33580.50091034185,-38246.13699270928,-37228.640881614796,-26576.984116671578,-35373.24492612421
14165.66391773986,4946.463399703908,-26454.04952216739,-33515.56909269918,-38222.6229575423,-37163.68671222767,-26518.221380498577,-35304.22273924622
14236.429540685362,4915.439178399942,-26502.798676824415,-33580.0762271972,-37992.13176871917,-37210.06658197243,-26413.525809469917,-35275.21017494323
14299.573218771604,4858.621043994552,-26569.697447979146,-33667.292734061804,-37999.50784438942,-37291.35987655639,-26471.483882842527,-35346.64635022239
14245.325534978574,4897.714245046884,-26518.802525854415,-33603.813779808734,-38223.33821336487,-37250.009149314064,-26575.464198048616,-35380.44218783882
14179.589054535516,4954.554731196729,-26443.56655401785,-33511.6575374195,-38243.41007988573,-37161.9209244157,-26531.051281815922,-35307.01670730313
14231.66861911638,4930.3030884627215,-26464.57719380584,-33553.29883733974,-38016.38341145318,-37187.31250611693,-26414.732803670504,-35260.41332011382
14296.265160592218,4855.380041048532,-26561.270840319496,-33654.596943211196,-37973.19984116553,-37284.72140845316,-26447.835737208814,-35329.92724536982
14251.047581559133,4869.394584822009,-26565.696485721648,-33627.238407997895,-38198.952460164124,-37268.672855934245,-26574.905404437235,-35386.36540011947
14167.764981718658,4931.800655341227,-26450.964981432557,-33515.54674095473,-38267.14763249727,-37168.91702043021,-26552.17368032619,-35319.13135279791
14206.612313581982,4933.342925708643,-26433.865896924246,-33522.051098591226,-38040.836219887286,-37168.157061118734,-26416.006853104456,-35251.517325820605
14269.465418990305,4841.566662975152,-26527.58676142535,-33625.87495158613,-37939.672224482565,-37265.47655647714,-26418.107917083256,-35306.055582291556
14229.545203393127,4814.14107252849,-26547.25629654602,-33630.45705919946,-38140.48029666905,-37279.155824083784,-26551.77134892599,-35382.878527984445
14125.587239931494,4871.294483100711,-26474.121388688254,-33525.42621200397,-38275.596591901376,-37189.614735795825,-26574.36896257031,-35345.193486832795
14104.733062354693,4852.519017758253,-26443.968885418046,-33515.07735432117,-38089.138339655205,-37163.887877927766,-26445.824080207836,-35266.60475332794
14152.051705366577,4745.677679261885,-26542.853002888325,-33624.578550407714,-37944.634311751644,-37259.37453024084,-26418.9349316281,-35301.294660722575
14121.206298018253,4688.121937289469,-26580.269823106508,-33653.255838543875,-38110.08192420983,-37302.06636215048,-26544.73054942257,-35386.76773151967
14001.311540759987,4716.083969603058,-26511.091174017332,-33556.87511645259,-38288.1359205408,-37218.69435533218,-26596.228968647596,-35369.35572258898
13973.349508446398,4729.629126742974,-26472.66852529866,-33519.100668323124,-38151.991445063526,-37170.325180330896,-26485.453723127095,-35287.79420707157
14041.231756357165,4656.605977607486,-26528.77140388148,-33610.16167523404,-37962.58276254925,-37251.03732955901,-26428.47912651052,-35299.327707210505
14035.35324756542,4596.971523400727,-26592.40682034574,-33664.789338682815,-38074.90027843718,-37305.82145521897,-26524.837496857348,-35379.883394227436
13943.37581913183,4646.011250735671,-26538.315598763897,-33575.650581795046,-38277.116510524334,-37229.87022755983,-26599.849951249358,-35379.83869073852
13906.674254736216,4683.159850020391,-26465.784188006426,-33512.57395894217,-38192.73867520555,-37167.88884018527,-26513.39340369623,-35298.634803132394
13975.808200336482,4625.469997581244,-26516.477944431062,-33591.07328546921,-37974.138614432646,-37234.139410750795,-26424.209943319554,-35289.67175360581
14018.254163057109,4578.039595847082,-26589.79166624447,-33665.12461484964,-38033.30368200585,-37304.30153659601,-26499.065935500377,-35369.847460967
13943.889909254303,4621.58079404602,-26555.526441994483,-33597.667050083524,-38260.62092311632,-37246.23170450112,-26598.9782332156,-35386.63362105294
13895.36427204183,4684.031568054148,-26459.838623981315,-33515.90436886601,-38214.24105337156,-37164.2231540946,-26524.457517201605,-35304.446256690775
13966.375764176342,4653.610843850475,-26494.327365675854,-33581.73025628689,-37990.12011171819,-37212.14529420678,-26421.930065385113,-35278.18295695579
14028.82653818447,4600.838375191495,-26592.45152383465,-33677.28396383333,-38001.45244615703,-37304.972088929666,-26487.040696983422,-35359.386844561915
13982.156095761788,4643.485503612221,-26568.266936334006,-33632.5357714338,-38235.05052745945,-37270.46099549067,-26605.303776896453,-35401.34106890453
13924.578002044917,4710.987771867249,-26480.156359691187,-33542.57000000119,-38264.688940607186,-37187.46896832812,-26563.103683364832,-35333.525876227126
13985.10652602989,4693.061672814092,-26500.13881923423,-33583.205471420944,-38038.06460357483,-37214.20165469666,-26437.576286503827,-35284.39674191437
14077.083954463478,4651.666242082863,-26583.555529541438,-33675.31701032126,-37976.172623178085,-37299.36180107138,-26458.497519313994,-35340.5443239861
14047.49024480465,4680.87997208595,-26581.946203940657,-33653.50170773288,-38200.40532355372,-37288.85648117739,-26590.372811600308,-35400.20112993731
13979.518589916062,4754.528970066187,-26491.91337727468,-33552.53887802826,-38284.49258619459,-37201.23764291259,-26587.958823199133,-35347.7415857007
14026.524308505574,4762.575598070097,-26481.139836447222,-33561.256058365834,-38080.197641873085,-37201.61762256832,-26463.504310071985,-35285.26845994812
14129.364684744442,4723.102417362024,-26557.985133884566,-33655.0439781003,-37961.39812009312,-37283.73793169713,-26442.940705173103,-35321.41123073235
14117.719425883226,4715.681638202863,-26579.845139961857,-33657.63678045711,-38157.512325943986,-37296.12079812537,-26566.858776433324,-35390.12049318796
14041.119997634889,4784.882639036494,-26493.81327555338,-33556.87511645259,-38293.67915316572,-37208.30079416047,-26593.859683735336,-35353.95537065928
14068.679698548282,4816.823281863128,-26455.792958234902,-33533.33872954115,-38106.99738347499,-37181.50105255855,-26470.52275783095,-35274.874898776405
14167.630871251926,4761.279196891689,-26527.989092825545,-33630.56881792174,-37943.22615185096,-37263.733120409626,-26425.863972409246,-35298.0313060321
14180.19255163581,4751.958519453826,-26569.40687530123,-33659.35786478018,-38097.810816503865,-37299.0041731601,-26541.802470898925,-35374.00488543569
14097.826373318003,4820.108988298058,-26506.173790237164,-33568.654485780535,-38284.76080712805,-37225.60104436887,-26603.56034082894,-35364.39363531991
14103.011978031634,4870.758041233783,-26442.896001684192,-33511.88105486406,-38145.64354963822,-37165.36309306182,-26485.163150449178,-35272.86324177543
14201.516115846172,4821.695962154385,-26503.759801835993,-33594.64956458206,-37941.66152973909,-37236.48634391861,-26408.004928589457,-35273.08675921998
14222.549107378616,4781.060490734636,-26571.88791893577,-33654.70870193347,-38054.314321793834,-37295.36083881388,-26512.320519962374,-35356.97285616075
14147.313135542052,4845.589976977108,-26509.303034460907,-33564.29589561175,-38264.04074001798,-37222.87413154532,-26591.579805800895,-35357.576353261036
14123.55323118606,4905.44794862842,-26440.99610340549,-33503.499150693315,-38179.37233202128,-37158.992845892055,-26502.798676824415,-35278.40647440034
14206.85818277099,4860.4538870398865,-26490.34875516281,-33579.11510218562,-37963.36507360519,-37223.74584957908,-26422.488858996494,-35270.181032440785
14258.177788040375,4818.767883630739,-26568.088122378365,-33652.38412051012,-38019.95969056603,-37299.56296677148,-26500.563502378882,-35350.66966422435
14189.245008140208,4868.522866788253,-26527.027967813967,-33581.08205569769,-38234.71525129262,-37241.694300376694,-26585.2766138645,-35367.81345222157
14145.41323726335,4925.385704682553,-26447.835737208814,-33499.56524366918,-38210.84358821435,-37162.05503488243,-26519.808354354904,-35289.53764313908
14225.499537646716,4902.810442782694,-26464.28662112792,-33554.23761060686,-37983.8169197818,-37202.51169234654,-26412.140001313688,-35256.613523556414
14285.871599420501,4841.521959486242,-26556.0181803725,-33647.26557102985,-37989.04722798434,-37293.796216702016,-26473.71905728806,-35333.90585588287
14228.941706292833,4864.432497552932,-26533.174697539176,-33605.9818990209,-38211.961175437114,-37267.37645475584,-26592.78680000148,-35377.067074426064
14164.032240394621,4931.375972196576,-26449.467414554052,-33511.121095552575,-38249.33329216639,-37179.98113393559,-26557.15811933972,-35309.65421314886
14211.507345617694,4911.706437075905,-26468.131121174232,-33547.15210761453,-38021.30079523335,-37200.70120104566,-26430.66959746714,-35257.954628223735
14288.754974455236,4849.1215526010465,-26553.15715708222,-33646.99735009639,-37957.75478574691,-37292.92449866825,-26448.61804826475,-35315.555073685064
14253.81919787159,4862.376137063043,-26547.971552368588,-33622.075155028724,-38174.4102447522,-37282.06155086298,-26573.11726488081,-35371.03210342313
14172.704717243281,4924.201062226422,-26456.910545457667,-33516.10553456611,-38259.74920508256,-37189.59238405137,-26567.484625278074,-35315.30920449605
14195.637607054427,4914.366294666087,-26469.80750200838,-33535.99858713133,-38065.3337318103,-37195.87322424331,-26453.781301233925,-35261.12857593639
14292.130087867987,4858.3975265499985,-26527.385595725253,-33622.81276259575,-37944.075518140264,-37276.83124266043,-26437.598638248284,-35297.78543684309
14277.243826060752,4856.318814315655,-26544.641142444747,-33621.18108525051,-38126.08577323983,-37284.542594497514,-26554.788834427458,-35360.32561782904
14186.316929616563,4918.9707540238805,-26473.09320844331,-33528.0637178497,-38271.97560929962,-37200.79060802348,-26583.555529541438,-35328.27321628013
14195.324682632052,4938.260309488811,-26449.62387676524,-33514.02682233177,-38104.73985728501,-37177.947125190156,-26470.0980746863,-35259.67571254679
14292.934750668377,4876.614198281074,-26517.081441531354,-33613.08975375769,-37939.33694831574,-37262.57082969795,-26428.747347443983,-35285.89430879287
14296.198105358853,4852.742535202806,-26564.645953732248,-33638.637797670104,-38093.765150757456,-37298.82535920446,-26547.166889568198,-35363.74543473071
14208.735729305236,4919.507195890808,-26508.43131642715,-33545.58748550266,-38286.12426353982,-37218.560244865446,-26608.947111242665,-35349.17209734584
14186.629854038938,4937.8132745997045,-26458.631629780728,-33509.46706646289,-38158.473450955564,-37176.31544784492,-26503.603339624806,-35272.68442781978
14265.956195110823,4874.669596513462,-26503.513932646983,-33595.40952389354,-37952.63623626664,-37251.12673653683,-26430.0884521113,-35273.86907027591
14294.477021035795,4840.7843519192165,-26570.345648568353,-33638.21311452545,-38051.98974037048,-37301.127588883355,-26527.34089223634,-35348.72506245674
14202.76781353567,4874.602541280096,-26505.68205185915,-33553.276485595285,-38260.10683299385,-37230.89840780478,-26602.64391930627,-35351.563734002564
14161.350031059985,4915.014495255291,-26437.129251614722,-33490.021048786766,-38181.205175066614,-37166.480680284585,-26508.453668171605,-35270.471605118706
14225.074854502065,4854.441267781409,-26484.559653348882,-33561.323113599195,-37957.710082257996,-37224.19288446819,-26412.74349841398,-35253.10429967693
14250.198215269831,4784.390900658476,-26566.92583166669,-33641.029434326825,-38011.51073116192,-37307.09550465292,-26498.261272699987,-35338.197390818284
14158.578414747528,4803.412235189943,-26540.371959253785,-33578.735122529884,-38243.81241128593,-37260.313303507966,-26608.65653856475,-35367.38876907692
14081.286082421075,4837.163369317457,-26457.268173368953,-33499.878168091556,-38230.624882057295,-37180.0258374245,-26549.938505880655,-35293.404494929855
14110.164536257333,4774.287912164678,-26482.503292858994,-33541.899447667536,-37994.99279200945,-37214.35811690785,-26430.42372827813,-35250.26562813111
14124.357893986451,4668.698271357807,-26566.814072944413,-33628.84773359868,-37971.478756842465,-37296.4560742922,-26472.556766576385,-35317.92435859732
14037.96840166669,4664.786716078129,-26567.261107833518,-33600.952756518454,-38212.452913815134,-37278.686437450226,-26604.856742007345,-35373.96018194678
13942.23588016461,4704.572821208575,-26489.745258062514,-33514.33974675414,-38261.09030974988,-37192.94514571967,-26577.185282371676,-35314.77276262912
13959.647889095295,4663.646777110908,-26488.135932461733,-33536.69149120945,-38036.54468495186,-37205.75269529256,-26451.18849887711,-35261.15092768084
14018.097700845921,4581.258247048646,-26577.721724238603,-33639.688329659504,-37969.109471930205,-37297.88658593733,-26470.99214446451,-35317.76789638614
13969.080325255434,4587.67319770732,-26580.962727184622,-33619.281186971806,-38175.90781163071,-37290.13053061134,-26590.059887177933,-35372.5520220461
13865.211768771622,4637.562291331565,-26516.902627575713,-33533.07050860769,-38291.22046127563,-37207.67494531572,-26600.721669283113,-35333.168248315844
13865.614100171817,4619.278564367123,-26502.61986286877,-33543.285255823765,-38095.01684844695,-37202.064657457435,-26478.52468234595,-35267.49882310615
13945.678048810727,4550.278729233591,-26592.809151745936,-33646.90794311857,-37968.528326574364,-37297.43955104823,-26469.315763630362,-35316.71736439674
13919.861783964847,4542.768543096608,-26625.777974817513,-33655.82628915623,-38158.87578235576,-37317.064382679986,-26597.36890761482,-35388.48881584273
13843.351762694332,4623.838320236006,-26539.366130753297,-33548.56026751522,-38305.5926329604,-37227.21036996965,-26629.89069579729,-35353.91066717037
13867.2234257726,4662.417431165866,-26493.43329589764,-33518.34070901164,-38130.44436340861,-37182.39512233676,-26493.254481941996,-35264.07900620449
13951.757723302571,4600.525450769121,-26558.29805830694,-33610.98868977889,-37955.206686879006,-37258.86044011837,-26435.676388225125,-35274.539622609576
13973.595377635405,4598.178517601314,-26612.99277698908,-33651.691216432,-38107.75734278648,-37304.36859182937,-26560.287363563464,-35358.80569920608
13885.46244924813,4660.606939864986,-26553.425378015683,-33562.15012814404,-38303.11158932586,-37233.379451439316,-26633.243457465585,-35355.43058579333
13881.79676315746,4705.3104287756005,-26484.91728126017,-33502.873301848565,-38172.57740170687,-37173.00738966553,-26517.327310720364,-35267.051788217046
13983.564255662473,4671.5592946480865,-26550.25143030303,-33588.32402090121,-37967.88012598516,-37245.02471030053,-26440.906696427668,-35265.710683549725
14009.849907141914,4634.723619785741,-26620.860591037344,-33652.272361787844,-38070.63109524621,-37312.52697855556,-26547.099834334833,-35358.0457398946
13959.826703050936,4716.128673091969,-26566.635258988772,-33570.80025324825,-38286.45953970665,-37249.78563186951,-26632.595256876382,-35368.685170255325
13923.616877033339,4763.46966784831,-26494.282662186943,-33495.96661281188,-38210.79888472544,-37171.576878020394,-26539.25437203102,-35276.774797055106
14004.44078498373,4720.666077216396,-26533.39821498373,-33562.46305256642,-37986.05209422733,-37225.86926530233,-26446.628743008227,-35257.30642763453
14085.443506889762,4699.543678706131,-26596.206616903142,-33634.50272494587,-38026.88873134717,-37301.64167900583,-26524.569275923885,-35339.80671641907
14029.430035284762,4752.584368298575,-26552.17368032619,-33565.61464853462,-38238.85032401685,-37245.76231786756,-26610.17645718771,-35357.084614883024
13983.988938807124,4815.929212084915,-26474.65783055518,-33483.04730451671,-38234.11175419232,-37171.21925010911,-26550.609058214315,-35283.681486091795
14059.649593788337,4789.442394905376,-26495.62376685426,-33531.662348707,-38003.79937932484,-37207.80905578245,-26437.397472548186,-35247.069328674
14126.458957965251,4725.784626696662,-26586.327145853895,-33626.478448686416,-37986.14150120515,-37295.62905974735,-26483.218548681565,-35316.56090218555
14076.033422474078,4752.114981665013,-26579.219291117108,-33596.39300064957,-38223.94171046516,-37278.48527175013,-26620.301797425964,-35373.55785054658
14016.823651411969,4826.188662789901,-26488.314746417374,-33491.071580776166,-38268.77930984251,-37184.54088980447,-26585.768352242514,-35304.26744273513
14072.703012550237,4816.957392329859,-26482.1009614588,-33509.377659485064,-38036.18705704058,-37191.13465441879,-26446.0923011413,-35239.44738381474
14163.719315972248,4760.921568980404,-26560.44382577465,-33609.1334949891,-37956.592495035235,-37282.307420051984,-26460.03978968141,-35295.773779842115
14131.532803956605,4773.013862730725,-26577.297041093952,-33597.93527101699,-38179.104111087814,-37283.0003241301,-26595.49136108057,-35361.063225396065
14059.470779832696,4850.596767735096,-26486.638365583225,-33487.51765340778,-38271.4838709216,-37182.73039850359,-26587.73530575458,-35305.11680902443
14092.17138197081,4857.481105027331,-26471.997972965,-33490.62454588706,-38079.72825523952,-37176.44955831165,-26463.057275182877,-35238.2180378697
14186.339281361019,4796.080863008602,-26549.938505880655,-33593.755494803845,-37947.47298329747,-37271.28801003552,-26443.141870873198,-35279.03232324509
14176.549217289594,4790.2470577057675,-26573.29607883645,-33603.59026236418,-38135.294691955416,-37292.23159459014,-26571.50793928003,-35356.12348987145
14094.495963394162,4859.738631217317,-26497.30014768841,-33501.53219718125,-38284.134958283306,-37201.81878826842,-26604.141486184777,-35322.66292842185
14098.78749832958,4881.419823338964,-26460.643286781706,-33480.901537049,-38120.654299337184,-37172.38154082079,-26487.040696983422,-35248.07515717449
14191.033147696633,4820.62307842053,-26539.857869131312,-33579.49508184136,-37947.025948408365,-37256.446451717195,-26436.90573417017,-35268.48229986218
14206.411147881885,4801.914668311438,-26581.9238521962,-33613.87206481362,-38084.71269425305,-37297.17133011476,-26545.40110175623,-35346.93692290031
14137.768940659636,4881.285712872233,-26501.85990355729,-33509.936453096445,-38269.852193576364,-37210.9830034951,-26601.280462894498,-35328.47438198023
14122.390940474384,4919.373085424076,-26439.1409086157,-33456.06874895916,-38153.3549014753,-37160.69157847066,-26498.462438400085,-35247.5163635631
14204.913581003379,4862.174971362945,-26517.528476420463,-33552.62828500608,-37954.87141071218,-37241.11315502085,-26429.79787943338,-35254.89243923336
14232.048598772122,4818.253793508267,-26584.673116764203,-33618.90120731607,-38053.30849329335,-37309.26362386509,-26531.20774402711,-35343.69591995429
14154.264528067653,4868.34405283261,-26527.452650958618,-33532.01997661829,-38261.112661494335,-37238.699166619685,-26614.378585145307,-35347.51806825615
14118.814661361535,4923.128178492568,-26450.42853956563,-33461.276705417244,-38202.28287008797,-37166.30186632894,-26532.414738227697,-35265.68833180527
14196.442269854817,4878.4693930708645,-26494.506179631495,-33537.04911912073,-37977.87135575669,-37220.169570466234,-26436.726920214525,-35250.0197589421
14257.35077349553,4836.67163093944,-26565.763540955013,-33605.95954727645,-38012.650670129144,-37294.8020452025,-26509.0571652719,-35323.4899429667
14194.251798898196,4879.5869802936295,-26529.799584126424,-33537.25028482083,-38236.05635595994,-37244.354157966874,-26614.780916545504,-35349.37326304594
14137.61247844845,4939.534358922763,-26459.413940836665,-33451.12901343453,-38236.168114682216,-37159.01519763651,-26562.902517664734,-35276.975962755205
14199.81738326757,4906.565535851185,-26475.641307311216,-33504.348516982616,-38005.83338807028,-37198.1307504333,-26446.181708119122,-35239.04505241454
14265.173884054886,4846.238177566312,-26559.1697763407,-33601.3327361742,-37973.24454465444,-37282.866213663365,-26477.652964312194,-35302.79222760108
14216.558839864594,4872.188552878923,-26548.999732613534,-33556.40572981903,-38207.222605612595,-37259.8439168744,-26602.666271050726,-35350.66966422435
14142.216937806243,4932.78413209726,-26463.839586238813,-33454.28060940273,-38265.448899918665,-37168.022950652,-26578.43698006117,-35286.25193670415
14186.898074972401,4912.265230687289,-26464.308972872375,-33479.42632191495,-38047.608798457244,-37179.824671724404,-26453.580135533826,-35227.77977320907
14260.211796785808,4834.190587304901,-26544.283514533465,-33587.474654611906,-37963.25331488292,-37278.105292094384,-26461.246783881998,-35283.815596558525
14222.057369000599,4834.6823256829175,-26544.35056976683,-33562.12777639959,-38157.422918966164,-37267.152937311286,-26573.251375347543,-35337.12450708443
14131.689266167792,4902.251649171311,-26475.373086377753,-33460.22617342784,-38275.32837096791,-37172.64976175425,-26581.856796962835,-35288.1294832384
14145.592051218993,4889.578210065152,-26457.022304179944,-33467.26697293126,-38084.64563901969,-37168.64879949675,-26461.202080393086,-35222.97414815118
14228.785244081646,4818.879642353016,-26518.82487759887,-33558.819718220206,-37933.726660457454,-37255.86530636136,-26429.730824200014,-35255.227715400186
14194.832944254034,4789.151822227457,-26568.06577063391,-33579.293916141265,-38121.83894179332,-37282.01684737406,-26559.326238551886,-35335.7386989282
14085.93524526778,4832.2906890262,-26491.24282494102,-33477.90640329199,-38280.11164428135,-37192.833386997394,-26598.508846582037,-35307.70961138125
14069.394954370851,4842.8407124091045,-26443.27598133993,-33440.020196440244,-38112.65237482219,-37149.09102309836,-26472.17678692064,-35220.09077311645
14101.179134986298,4724.3317633070665,-26540.88604937626,-33556.361026330116,-37949.19406762053,-37248.399823713284,-26435.519926013938,-35255.428881100284
14069.327899137486,4661.5233613876535,-26600.78872451648,-33599.6787070845,-38084.667990764145,-37296.59018475893,-26550.452596003128,-35340.36551003045
13938.793711518492,4682.377538964455,-26546.317523278896,-33517.15606655551,-38293.5897461879,-37226.00337576907,-26628.66134985225,-35338.622073962935
13880.142734067767,4690.915905346383,-26478.479978857038,-33462.394292640005,-38173.40441625171,-37162.68088372718,-26513.125182762764,-35247.56106705202
13934.993914961091,4607.119215383436,-26553.35832278232,-33551.8683256946,-37962.02396893787,-37235.94990205168,-26428.345016043786,-35246.64464552935
13952.0929994694,4549.496418177655,-26598.55355007095,-33611.234558967895,-38045.15010656716,-37297.66306849278,-26522.177639267164,-35329.79313490309
13865.815265871915,4597.776186201118,-26546.183412812166,-33521.82758114667,-38264.398367929265,-37234.94407355119,-26615.719689812624,-35341.080765853025
13807.253695399011,4633.874253496439,-26498.23892095553,-33461.52257460625,-38220.566597052406,-37173.49912804355,-26544.216459300096,-35267.945857995255
13870.799704885449,4579.2242383032135,-26544.082348833366,-33543.32995931267,-37999.016106011404,-37235.14523925129,-26447.120481386242,-35253.08194793248
13925.650885778772,4524.529519621077,-26607.22602691961,-33623.952701562965,-38015.91402481962,-37305.12855114086,-26506.978453037555,-35320.874788865425
13848.045629029946,4551.70924087873,-26573.631355003283,-33558.171517630995,-38243.343024652364,-37254.03246331602,-26612.45633512215,-35346.0428531221
