Fp1,Fp2,C3,C4,P7,P8,O1,O2
13422.55782157872,9609.551383203434,-36122.34128979937,-46060.86564789601,-41806.769884439695,-50221.12878812895,-31911.11617220833,-52966.682966552136
13451.168054481514,9708.72607335163,-35998.579680750336,-45944.703631961784,-41618.5234926371,-50103.04452217156,-31732.033995632413,-52825.956383461526
13517.284514580311,9561.048097735416,-36196.9961162801,-46160.241503744306,-41589.60033531193,-50301.1256815345,-31713.19147505659,-52977.791783546425
13510.131956354613,9460.73346862,-36330.368975444915,-46290.37335996311,-41759.74181410573,-50434.16326453248,-31881.209538127132,-53123.838081817405
13436.393551396555,9579.309472955403,-36162.507374585555,-46104.33979086159,-41823.556044525634,-50267.64276834045,-31934.876076564324,-53006.06674028239
13434.873632773595,9695.382081911812,-36008.41444831067,-45954.60545475548,-41661.66235943584,-50117.796673512064,-31773.85410950829,-52848.62105233921
13513.81999418974,9591.357063216814,-36153.141993658784,-46114.442779355384,-41576.05517817201,-50262.18894269335,-31696.76294288194,-52941.447847062096
13534.137729899614,9464.488561688491,-36317.31555668301,-46281.522069158804,-41727.085915456526,-50430.27406099726,-31844.217401053596,-53111.14229096679
13463.863845332127,9557.002431989007,-36187.36251441986,-46134.69345983189,-41820.94089042436,-50295.80596635413,-31929.46695440614,-53027.05502832592
13432.79492053925,9692.498706877079,-36008.88383494423,-45945.15066685089,-41686.69631322579,-50107.827795485,-31794.171845218167,-52846.02824998239
13513.328255811723,9633.28893581497,-36096.05563831993,-46047.611063434015,-41556.497401773624,-50198.1511948289,-31677.160462994634,-52890.2847040039
13540.753846258385,9472.624596670223,-36303.05514372053,-46264.98177826188,-41682.91886841284,-50401.12738622754,-31801.59262437733,-53073.636063770784
13456.75599059534,9510.086120377317,-36237.96686386667,-46189.96932386987,-41831.71443125182,-50337.55902499665,-31937.334768454406,-53053.38538329428
13417.327513376178,9669.655224043754,-36028.285149131436,-45967.61417002847,-41724.96249973327,-50126.178577682804,-31828.68293865716,-52862.725003090505
13473.586854170188,9631.903127658741,-36085.95264982613,-46040.52556044168,-41587.52162307759,-50187.6458749349,-31699.758076638947,-52882.48394518899
13517.709197724962,9465.650852400167,-36297.713076795706,-46271.15085973154,-41671.72064444073,-50409.55399388719,-31788.136874215234,-53076.005348683044
13467.551883167254,9480.894742118686,-36266.08535839145,-46225.463894064895,-41821.27616659119,-50372.65126379148,-31925.287178192997,-53076.27356961651
13413.4159580965,9649.851578456351,-36045.29482666193,-45987.12724293795,-41754.82443032556,-50149.5361506386,-31852.10756684632,-52882.34983472226
13469.854112846151,9670.01285195504,-36031.72731777756,-45984.57914407005,-41583.38655035336,-50144.32819418052,-31690.526806178907,-52844.66479357061
13533.713046754963,9509.393216299202,-36250.84146867293,-46214.15391137051,-41624.67022236231,-50367.10803116656,-31742.338149826308,-53036.26394704151
13491.781174156808,9480.961797352053,-36288.03477144656,-46232.70585926841,-41789.290820275644,-50390.71147331136,-31896.185206912185,-53087.60590405535
13412.767757507296,9622.783615920975,-36072.385140941755,-46018.5090921532,-41776.013884069194,-50188.29407552411,-31875.107511890834,-52920.05722761837
13461.874540075605,9688.117764963838,-35995.38338129323,-45948.52578026364,-41589.42152135629,-50116.56732756703,-31701.009774328446,-52824.52587181638
13543.212538148468,9541.155045170193,-36190.00002026559,-46161.13557352252,-41572.724768248176,-50310.334600250084,-31693.924271336113,-52973.9025800112
13527.25339260738,9483.040509586395,-36267.31470433649,-46232.28117612376,-41737.23360743924,-50387.91750525445,-31853.046340113444,-53073.03256667049
13448.32938293569,9620.414331008713,-36082.44342594664,-46025.236967234254,-41766.06735778658,-50197.12301458395,-31868.35728506533,-52928.305021322376
13429.732731548875,9674.10322119036,-36005.86634944277,-45956.170076867355,-41620.51279789362,-50118.221356656715,-31730.402318287175,-52830.04675269685
13495.782136414307,9531.186167143127,-36189.26241269856,-46161.493201433805,-41585.75583526562,-50308.38999848247,-31706.41889648663,-52966.884132252235
13496.475040492422,9433.978430506997,-36314.23101594818,-46280.65035112505,-41746.26371219918,-50435.325555244155,-31861.22707858409,-53104.682636819205
13420.009722710816,9550.788647030431,-36152.5832000474,-46102.17167164942,-41806.79223618415,-50263.37358514948,-31907.674003562213,-52984.74317607203
13402.240085868847,9659.082848916394,-36008.3473930773,-45950.40332679789,-41652.833420375995,-50115.002705455154,-31757.112652911266,-52834.204177165535
13479.912397851038,9560.310490168393,-36151.19739189117,-46110.15124441996,-41568.50028854612,-50263.23947468275,-31683.486006675485,-52932.14952136869
13502.040624861793,9436.861805541732,-36312.6216903474,-46277.9234383015,-41708.556319303076,-50429.69291564142,-31822.871485098778,-53096.09956694837
13427.318743147702,9524.83827171782,-36191.028200510525,-46137.12979997752,-41815.19649209935,-50301.796233868154,-31920.101573479365,-53017.01909506549
13414.108862174615,9678.037128214495,-35988.61080272327,-45935.47236150174,-41671.228906062715,-50103.133929149386,-31780.984315989535,-52826.80574975083
13478.23601701689,9599.046063309439,-36089.68539115017,-46055.41182224892,-41553.41286103879,-50211.58459324653,-31674.634715871183,-52887.62484641372
13522.984209416416,9455.525512161912,-36286.380742356865,-46253.224760678386,-41666.19976356027,-50405.86595605206,-31790.05912423839,-53071.825572469905
13444.641345100565,9492.338835279803,-36233.42945974225,-46177.228829530344,-41818.19162585636,-50344.75628671125,-31933.020881774533,-53061.7225839761
13398.976731178373,9645.470636543112,-36023.23365488454,-45965.51310604967,-41722.72732528774,-50137.44385688828,-31835.835496882857,-52874.66083462964
13472.826894858707,9629.086807857371,-36056.40364365622,-46012.183548472356,-41555.08924187294,-50167.66341539186,-31679.440340929075,-52859.79692456686
13510.646046477086,9453.737372605488,-36285.44196908975,-46245.24518790784,-41642.909245837836,-50398.37812165954,-31768.89202223921,-53063.1754473657
13444.797807311752,9454.854959828253,-36281.75393125462,-46226.69324000993,-41815.06238163261,-50390.107976211075,-31929.399899172775,-53092.657398302246
13396.071004399182,9630.494967758057,-36049.02756798596,-45987.708388293795,-41742.64272959742,-50156.64400537539,-31853.761595936016,-52889.45768945905
13443.076722988693,9646.923499932707,-36040.71271904859,-45986.21082141529,-41571.71893974769,-50142.24948194617,-31691.398524212662,-52836.998145222446
13508.142651098091,9488.136707322206,-36254.06011987449,-46216.18792011594,-41607.86171053192,-50361.520095052736,-31732.27986482142,-53016.48265319856
13476.179656527001,9467.617805912234,-36282.335076610456,-46231.43180983446,-41773.75635787921,-50385.347054642094,-31888.92088996421,-53075.26774111602
13407.090414415648,9621.174290320194,-36072.608658386314,-46010.01542926019,-41764.6591978859,-50177.87816260793,-31869.40781705473,-52904.388654755196
13443.210833455425,9678.573570081422,-36002.37947730774,-45948.9951668972,-41583.967695709194,-50116.477920589205,-31697.70171614906,-52815.540470545355
13528.594497274697,9539.590423058322,-36192.704581344675,-46157.8945705765,-41569.28259960206,-50305.86425135902,-31691.51028293494,-52968.80638227539
13498.91138063805,9459.168846508128,-36294.986163972164,-46250.29668215474,-41753.66213961389,-50403.36256067307,-31864.222212341097,-53082.06267143043
13421.954324478427,9597.526144686479,-36105.97981285809,-46039.67619415238,-41779.0090178262,-50210.422302534855,-31875.934526435678,-52928.66264923366
13431.677333316486,9684.183857939704,-35985.3921515217,-45924.9893933522,-41605.20185294174,-50098.1271383914,-31711.73861166699,-52802.12942387217
13516.457500035465,9561.584539602345,-36149.11867965683,-46108.921898474924,-41543.7569074341,-50267.41925089589,-31662.20714595403,-52921.46538751905
13488.584874699698,9430.491558371968,-36316.019155504604,-46268.20042946344,-41733.74673530421,-50429.6035086636,-31842.585723708362,-53089.32698837841
13406.777489993274,9540.976231214552,-36159.10990942835,-46098.77420649221,-41811.93313740887,-50276.7175765893,-31913.016070487032,-52990.15229823021
13412.253667384824,9678.52886659251,-35982.709942187066,-45929.28092828762,-41638.46124869123,-50106.84431872897,-31744.595676016295,-52817.95445894652
13497.167944570536,9583.824525335374,-36111.120714082805,-46072.443851523865,-41541.58878822193,-50243.61464305099,-31661.447186642552,-52903.02519834342
13531.276706609335,9464.980300066507,-36274.06493116199,-46234.87397848058,-41667.83144090551,-50400.9485722719,-31789.00859224899,-53054.50297051704
13454.207891727436,9539.478664336046,-36164.742549031085,-46109.16776766393,-41782.3617794945,-50284.49598365975,-31886.909232963233,-52986.93364702864
13443.881385789084,9703.093433748894,-35949.36113945975,-45895.909773815845,-41638.349489968954,-50075.6189317249,-31746.27205685044,-52792.00408363391
13505.57220048573,9630.651429969243,-36052.04505348743,-46008.02612400366,-41518.63354666633,-50175.620636417945,-31636.54734331934,-52844.26246217042
13533.757750243873,9466.835494856297,-36265.14658512433,-46228.63784177755,-41644.98795807218,-50390.75617680028,-31765.0475221929,-53039.08026684288
13473.18452276999,9516.12109138025,-36194.179796478726,-46142.18129422442,-41778.89725910393,-50317.19658579786,-31884.919927706713,-53011.05117929592
13413.974751707883,9659.90986346124,-35993.50583475898,-45932.27606204463,-41685.265801580645,-50115.360333366436,-31791.91431902818,-52827.02926719538
13470.43525820199,9634.942964904663,-36034.722451534566,-45986.300228393105,-41537.74428817562,-50155.839342575,-31655.434567384076,-52825.822272994796
13519.519689025843,9467.908378590153,-36254.52950650806,-46214.93622242645,-41616.824760058495,-50375.31112138166,-31737.84544919079,-53016.75087413203
13462.232167986891,9468.82480011282,-36243.7559656806,-46189.745806425315,-41777.55615443661,-50362.414164830945,-31884.539948050973,-53039.05791509842
13412.208963895913,9644.733028976087,-36007.78859946592,-45948.90575991938,-41707.32697335804,-50127.85495851695,-31813.573159405372,-52841.401438880144
13442.428522399488,9642.900185930752,-36012.72833499054,-45960.1486873804,-41553.99400639463,-50135.18633069829,-31672.354837936742,-52810.48897629845
13510.422529032532,9485.722718921032,-36227.28273001704,-46182.79441389971,-41587.3651608664,-50345.717411722835,-31712.23035004501,-52989.36998717427
13468.66947039002,9446.6295178687,-36275.830718973964,-46220.367696329085,-41762.91576181838,-50386.665807564954,-31877.87912820329,-53062.05786014293
13400.720167245885,9608.322037258391,-36061.03045475846,-45994.50331860821,-41748.744755833715,-50176.02296781814,-31856.39910178174,-52886.95429408006
13431.409112383022,9668.470581587622,-35988.52139574545,-45928.92330037634,-41567.405053067814,-50104.25151637215,-31679.03800952888,-52787.421976020574
13504.655778963064,9516.009332657974,-36186.71431383066,-46143.47769540283,-41559.04550064153,-50308.68057116039,-31679.70856186254,-52950.63441403323
13488.942502610982,9439.521663131913,-36281.82098648798,-46238.13733317106,-41732.740906803716,-50404.77072057375,-31852.264029057507,-53069.12101139081
13409.727920261374,9573.587426374845,-36094.200443530135,-46035.69758363934,-41764.72625311926,-50212.36690430247,-31876.314506091418,-52923.052361375376
13418.84743199914,9668.090601931883,-35972.47284322653,-45916.89806185938,-41597.468149360204,-50096.897792446354,-31715.89603613568,-52794.574534246276
13504.34285454069,9550.27455690796,-36136.93697892869,-46099.60122103706,-41534.25741604059,-50266.32401541758,-31661.044855242355,-52914.40223627118
13505.169869085536,9442.360334677736,-36284.12321616688,-46243.45704835142,-41702.20842387777,-50409.62104912056,-31821.753897876013,-53066.39409856726
13432.861975772617,9560.154027957205,-36120.217874076116,-46070.02986312269,-41773.37637822347,-50250.56603557659,-31886.037514929478,-52955.73061176904
13414.980580208372,9675.578436324411,-35963.196869277584,-45915.40049498087,-41624.6255188734,-50095.44492905676,-31741.868763192746,-52796.47443252498
13492.697595679474,9579.868266566786,-36096.167397042205,-46063.79372641966,-41527.73070665964,-50229.39893357742,-31658.49675637445,-52881.65693064415
13511.473061021932,9441.578023621802,-36280.14460565384,-46244.48522859636,-41675.073406109026,-50408.97284853135,-31803.336060444843,-53058.14630486326
13452.75502833784,9536.014143945473,-36152.20322039166,-46098.95302044786,-41772.41525321189,-50279.98093127977,-31890.753733009547,-52977.59061784633
13422.893097745551,9686.553142851966,-35962.10163379928,-45891.59588713597,-41647.69251915128,-50088.49353653116,-31765.494557082005,-52791.1100138557
13501.705348694963,9632.819549181408,-36041.51738184898,-45984.66855104787,-41508.798779106,-50166.7916973581,-31638.246075897943,-52826.78339800637
13530.315581597755,9463.370974465726,-36246.5052302486,-46206.12963511105,-41628.090039263974,-50383.2906941522,-31759.213716890066,-53028.463188226604
13461.561615653232,9500.11724235025,-36197.62196512485,-46133.62057609804,-41776.88560210295,-50320.43758874388,-31892.296003376963,-53010.581792662364
13417.70749303192,9664.089639674383,-35982.754645675974,-45909.253765255664,-41675.87806890942,-50103.24568787166,-31789.0532957379,-52809.796072220335
13473.877426848107,9642.00611615254,-36016.12580014775,-45959.098155391,-41522.32158450146,-50145.37872616992,-31649.243134169956,-52813.439406566555
13530.650857764585,9481.654701430167,-36222.94649159271,-46185.87895463454,-41588.75096902263,-50360.29074910769,-31721.483972249505,-53002.55751640291
13483.421621730522,9485.92388462113,-36214.92221533325,-46168.31048349267,-41745.83902905453,-50347.97493791282,-31864.73630246357,-53023.366990490795
13416.813423253707,9644.062476642428,-36001.95479416309,-45944.10013486149,-41696.08404589701,-50134.091095219985,-31809.21456923659,-52842.13904644717
13474.972662326416,9677.120706691827,-35961.34167448779,-45924.60941369646,-41514.632584408835,-50106.3749320954,-31639.83304975427,-52787.26551380939
13545.403009105088,9517.88687919222,-36177.59480209289,-46158.341605465605,-41539.510075987586,-50325.377324268506,-31673.293611203866,-52977.47885912405
13514.62465699013,9482.504067719468,-36223.17000903726,-46187.44357674642,-41708.15398790288,-50363.464696820345,-31836.39429049424,-53056.76049670702
13441.75797006583,9636.641697483266,-36018.11510540427,-45966.18365838333,-41702.52134830014,-50154.31942395204,-31823.83261011036,-52894.77740463942
13458.231205729391,9684.854410273363,-35959.62059016473,-45905.09634078698,-41536.716107930675,-50087.55476326404,-31667.638619856672,-52805.14690937363
13523.744168727895,9528.369847341759,-36156.427700093715,-46129.91018651846,-41522.41099147928,-50293.88371633097,-31657.915611018612,-52963.37490837275
13498.397290515577,9442.606203866746,-36263.62666650137,-46234.60575754711,-41699.01212442066,-50398.981618759826,-31827.140668289743,-53093.30559889145
13416.813423253707,9574.660310108698,-36098.22375753209,-46041.889016853456,-41738.753526062195,-50212.0539798801,-31859.260125072018,-52958.41282110367
13426.715246047408,9671.532770578,-35965.40969197866,-45917.25568977067,-41562.08533788745,-50076.8706294144,-31690.012716056433,-52812.97001993299
13508.634389476108,9552.465027864579,-36135.931150428194,-46103.9821629503,-41493.28666845401,-50238.42903833736,-31637.754337519928,-52932.30598357988
13494.083403835702,9426.378837392193,-36313.940443270265,-46258.23155143637,-41675.72160669823,-50395.78531930272,-31807.448781424617,-53099.49703210557
13424.65888555752,9536.237661390027,-36143.95542668765,-46082.81506095112,-41760.077090272556,-50237.89259647043,-31874.951049679647,-52990.53227788595
13417.528679076277,9668.224712398614,-35962.05693031036,-45909.834910611506,-41594.115387691905,-50064.71128043071,-31720.053460604366,-52819.720246758494
13504.946351640983,9587.46785968159,-36088.545452182945,-46048.57218844559,-41485.59766836139,-50188.271723779646,-31623.560979790807,-52896.498488962476
13513.48471802291,9436.995916008464,-36282.893870221844,-46244.77580127428,-41637.4777719352,-50376.607522560065,-31770.166071673164,-53084.92369472071
13439.858071787128,9508.633256987721,-36174.30909565796,-46125.95392774987,-41744.96731102077,-50264.66998632789,-31867.239697842564,-53025.02101958049
13413.08068192967,9659.5298838055,-35970.14826180318,-45921.30135551708,-41607.90641402083,-50055.725879159676,-31731.47520202103,-52828.1692061626
13479.219493772924,9603.5164122005,-36052.335626165346,-46017.74913284172,-41477.59574384639,-50137.242691188185,-31611.714555229493,-52860.40042166715
13507.740319697896,9431.877366528197,-36264.54308802403,-46237.131504670564,-41590.9190882348,-50348.220807101825,-31723.585036228305,-53056.00053739554
13436.237089185368,9459.39236395268,-36203.20990123867,-46172.24439051681,-41739.69229932932,-50294.464861686814,-31859.34953204984,-53049.11620010331
13387.286768828246,9620.324924030892,-35990.68951495761,-45942.91549240536,-41644.451516205256,-50071.39445202285,-31760.644228535206,-52851.28090992939
13432.236126927868,9599.202525520626,-36026.36289910828,-45986.501394093204,-41487.3411044289,-50105.03382742809,-31616.20725586501,-52847.83874128327
13490.708290422952,9436.10184623025,-36224.377003237845,-46222.468760307886,-41551.89294241583,-50325.53378647969,-31687.039934043878,-53040.26490929901
13417.103995931626,9404.474127825992,-36231.708375419184,-46227.00616443231,-41725.36483113347,-50334.183911583896,-31847.078424343876,-53081.16860165222
13332.614401890565,9539.858643991785,-36019.210340882586,-45991.28466740664,-41671.63123746291,-50111.76170250913,-31792.048429494913,-52894.41977672813
13352.21688177787,9546.36300162828,-35997.32798306084,-45973.33621660903,-41508.888186083816,-50091.84629819945,-31637.97785496448,-52840.5744243353
13406.196344637436,9381.854162437221,-36193.464540656154,-46184.82842264514,-41516.04074430952,-50288.04991102814,-31651.701826060038,-52995.002626777015
13333.508471668778,9297.610437585168,-36287.61008830191,-46260.04204273725,-41711.30558387108,-50362.16829564194,-31838.20478179512,-53096.09956694837
13226.287153516669,9416.298200642848,-36085.34915272584,-46051.00852859122,-41725.186017177824,-50161.851961833476,-31845.78202316547,-52940.28555635042
13236.211328054826,9472.78105888141,-35992.23178532503,-45953.1972948548,-41534.59269220742,-50068.75694617712,-31664.867003544216,-52823.005953193424
13308.854497534574,9327.785292599832,-36181.1934329502,-46153.6924426189,-41506.16127326027,-50256.13161994596,-31642.87288700019,-52963.62077756176
13280.646596031977,9227.202442550952,-36290.38170461437,-46258.9691590034,-41673.06174910805,-50354.367536827034,-31801.302051699407,-53076.921770205714
13181.807182050608,9337.374190971159,-36112.95355712814,-46061.960883374326,-41721.408572364875,-50170.591493915505,-31837.288360272454,-52942.72189649605
13160.662431795889,9412.632514552179,-35987.56027073387,-45940.590910982006,-41557.0114918961,-50049.847370367934,-31677.31692520582,-52809.93018268707
13206.170583506893,9264.239283113395,-36179.31588641595,-46146.98691928231,-41516.91246234327,-50240.37364010497,-31651.79123303786,-52956.35646061379
13208.5175166747,9145.551520055715,-36328.06674576602,-46299.001133322854,-41674.7381299422,-50386.73286279832,-31811.025060537468,-53114.47270089063
13119.35640804248,9244.145064848073,-36178.75709280457,-46135.140494720996,-41760.50177341721,-50233.82457897956,-31883.914099206224,-53009.195984506136
13109.253419548682,9381.965921159497,-35997.797369694395,-45945.86592267346,-41592.32724813548,-50046.53931218855,-31717.393603014185,-52818.200328135536
13182.857714040008,9288.334463636216,-36133.02542364901,-46089.45352905435,-41492.12437774234,-50188.964627857764,-31630.892351972147,-52908.61313445725
13204.650664883931,9133.28041234975,-36318.76842007261,-46287.266467483816,-41633.70032712226,-50378.61917956104,-31772.021266462954,-53095.80899427045
13117.568268486057,9199.665093382013,-36220.71131714718,-46161.001463055785,-41746.88956104393,-50258.83618102505,-31870.92773567769,-53025.22218528059
13075.167009254339,9351.209920788995,-36016.17050363666,-45959.20991411328,-41628.84999857545,-50060.844428639946,-31752.932876698123,-52839.27802315689
13150.358277601992,9299.733853308422,-36088.65721090522,-46053.84720013705,-41498.85225282339,-50149.69261284979,-31636.480288085975,-52880.56169516584
13192.42426066688,9135.38147632855,-36297.936594240266,-46278.54928714625,-41600.08330346147,-50360.29074910769,-31733.688024722105,-53069.97037768011
13131.962791915274,9176.642796593047,-36230.881360874344,-46192.13744308203,-41730.88571201393,-50288.42989068388,-31852.73341569107,-53042.43302851117
13076.418706943836,9335.116664781173,-36028.016928197976,-45981.6510655464,-41659.337778012494,-50092.6733127443,-31776.938650243123,-52869.162305493635
13145.664411266376,9340.458731705992,-36052.31327442089,-46014.82105431808,-41502.249717980594,-50120.12125493542,-31633.44045084005,-52857.11471523222
13211.579705665077,9185.136459486062,-36251.98140764015,-46237.66794653749,-41550.015395881586,-50328.171292325416,-31688.582204411294,-53028.329077759874
13171.480676112256,9182.610712362613,-36257.52464026507,-46230.7612575008,-41716.20061590679,-50326.561966724636,-31843.993883609044,-53063.73424097708
13122.016265632661,9358.831865648255,-36043.95372199461,-45999.241888432734,-41671.13949908489,-50099.89292620336,-31791.467284139075,-52872.582122395295
13160.215396906782,9386.883304939665,-36030.20739915459,-45989.451824361306,-41512.97855531914,-50085.073719629494,-31645.756262034927,-52826.425770095084
13235.227851298792,9233.30446878725,-36235.82109639896,-46210.7564462133,-41538.683061442745,-50300.5221844342,-31678.993306039967,-53001.574039646875
13211.020912053695,9192.065500267208,-36289.21941390269,-46251.54837984424,-41708.891595469904,-50351.59592051458,-31845.469098743095,-53079.156944651244
13160.12598992896,9360.776467415866,-36078.822443344885,-46024.275842222676,-41701.47081631074,-50137.309746421546,-31829.0629183129,-52906.2885530339
13202.147269504938,9446.227186468504,-35986.28622129992,-45941.57438773804,-41520.578148433946,-50052.03784132455,-31652.998227238448,-52798.21786859249
13295.219933416836,9319.13516749563,-36177.90772651527,-46150.451439672885,-41497.421741178245,-50252.77885827766,-31642.73877653346,-52953.65189953469
13302.327788153623,9248.905986417054,-36276.65773351881,-46248.463839109405,-41661.61765594693,-50355.59688277208,-31806.979394791055,-53072.853752714844
13214.396025466445,9367.481990752458,-36121.6260339768,-46076.914200414925,-41724.426057866345,-50195.13370932743,-31864.848061185847,-52956.267053635966
13221.213307525315,9473.16103853715,-35992.36589579176,-45949.531608764126,-41569.0590821575,-50074.456641013225,-31714.42082100163,-52825.26347938341
13322.220840718848,9376.534447256858,-36137.24990335106,-46108.81013975265,-41485.86588929485,-50217.12782587145,-31641.822355010794,-52919.967820640544
13335.475425180844,9265.133352891608,-36306.296146666544,-46275.91178130052,-41653.14634479837,-50376.65222604898,-31801.413810421684,-53083.716700520126
13277.29383436368,9390.034900907864,-36156.003016949064,-46109.52539557522,-41732.00329923669,-50227.81195972109,-31872.69352348966,-52985.19021096113
13269.761296482242,9529.867414220264,-35977.814910151355,-45931.89608238889,-41582.55953580851,-50061.112649573406,-31726.356652540762,-52819.519081058395
13362.163408060482,9462.67807038761,-36080.163548012206,-46056.66351993842,-41464.3858628733,-50175.88885735141,-31622.063412912303,-52889.39063422569
13390.214847351892,9324.343123953715,-36276.56832654099,-46259.32678691469,-41605.291259919555,-50367.6891765224,-31758.05142617839,-53072.518476548015
13323.941925041907,9394.728767243478,-36185.373209163336,-46150.78671583971,-41731.913892258875,-50271.50962013121,-31871.173604866697,-53018.80723462191
13294.169401427436,9543.591385315822,-35980.742988674996,-45942.64727147189,-41618.99287927066,-50074.09901310194,-31758.789033745416,-52835.14295043266
13376.423821022967,9505.079329619328,-36038.142268436226,-46020.565452643095,-41465.77167102953,-50142.07066799053,-31621.72813674547,-52859.88633154468
13430.85031877164,9357.334298769749,-36238.81623015597,-46225.732114998355,-41556.58680875145,-50343.86221693304,-31710.41985874413,-53036.95685111963
13370.768829675775,9388.224409606983,-36198.717200603154,-46170.05391956019,-41708.37750534743,-50297.325884977094,-31847.77132842199,-53029.55842370492
13307.647503333987,9537.735228268532,-36006.335736076326,-45961.60155076999,-41648.45247846276,-50096.54016453507,-31781.073722967354,-52854.09722973076
13368.511303485788,9538.405780602192,-36013.15301813519,-45985.2049929148,-41491.11854924185,-50113.70630427675,-31635.183886907565,-52830.51613933041
13438.919298520006,9387.822078206787,-36228.64618642881,-46208.63303049005,-41548.741346447634,-50332.50753074975,-31699.914538850135,-53020.88594685626
13388.247893839824,9371.550008243325,-36252.09316636243,-46218.06546665019,-41725.20836892228,-50347.05851639015,-31864.758654208024,-53073.904284704244
13330.423930933945,9541.020934703462,-36035.348300379315,-45984.46738534777,-41682.02479863463,-50121.797635769566,-31816.165961762188,-52885.032044056905
13380.760059447297,9579.734156100054,-35994.15403534818,-45948.414021541364,-41504.57429940395,-50090.885173187875,-31654.384035394676,-52819.943764203046
13455.593699883664,9423.920145502108,-36196.549081390986,-46171.640893416516,-41518.186511777225,-50298.97991406678,-31672.64541061466,-52986.464260395085
13429.4198071265,9379.417822291593,-36254.39539604133,-46225.68741150945,-41690.093778382994,-50357.049746161676,-31838.83063063987,-53072.76434573703
13352.97684108935,9530.962649698575,-36060.60577161381,-46013.12232173948,-41701.44846456629,-50154.67705186332,-31837.0648428279,-52911.67532344763
13374.099239599615,9605.818641879398,-35971.243497281495,-45929.951480621276,-41535.26324454108,-50068.10874558792,-31677.60749788374,-52808.07498789728
13468.71417387893,9483.420489242137,-36140.5803132749,-46122.31059340365,-41480.05443573647,-50247.36973611948,-31638.78251776487,-52939.972631928045
13440.908603776528,9373.494610010936,-36275.00370442912,-46254.36469964561,-41672.77117643013,-50385.68233080892,-31821.642139153737,-53084.76723250953
13372.445210509923,9511.181355855628,-36088.545452182945,-46050.203865790834,-41714.45717983928,-50195.536040727624,-31850.900572645736,-52943.03482091842
13392.450021797422,9635.412351538223,-35929.69160433908,-45896.7814918496,-41524.37794499135,-50036.12339927237,-31668.46563440152,-52775.17322005907
13460.66754587502,9504.878163919231,-36100.928318611186,-46085.94430517487,-41460.20608666016,-50214.04328513662,-31620.49879080043,-52904.96980011104
13464.444990687965,9373.293444310839,-36265.4595095467,-46257.02455723579,-41628.917053808815,-50386.93402849842,-31788.226281193052,-53079.33575860689
13396.495687543833,9482.6381781862,-36119.34615604236,-46090.057026154645,-41714.36777286146,-50237.80318949261,-31860.73534020607,-52981.6586353372
13366.432591251445,9604.768109889998,-35955.2843517404,-45921.48016947272,-41579.94438170724,-50073.04848111254,-31724.769678684435,-52818.49090081345
13426.268211158302,9506.666303475655,-36083.27044049149,-46069.0240346222,-41485.21768870565,-50208.209479833786,-31643.69990154504,-52901.81820414284
13447.658830602031,9356.931967369554,-36282.62564928838,-46271.329673687185,-41619.66343160432,-50399.56276411567,-31777.94447874361,-53086.018930199025
13388.426707795466,9431.005648494442,-36179.40529339377,-46156.03937578671,-41739.73700281823,-50295.71655937631,-31889.524387064506,-53034.20758655162
13379.217789079881,9612.457109982624,-35937.62647362071,-45911.75716063466,-41592.39430336885,-50059.43626873926,-31742.494612037495,-52808.92435418658
13460.444028430466,9582.796345090432,-35985.72742768854,-45974.498507320706,-41432.91460668023,-50116.94730722276,-31596.24714806642,-52818.893232213646
13494.172810813525,9411.604334307234,-36217.515017690064,-46210.9576119134,-41544.29334930103,-50347.55025476817,-31711.403335500163,-53027.63617368176
13416.3663883646,9416.454662854036,-36198.56073839196,-46178.346416753106,-41712.87020598295,-50323.879757389994,-31872.425302556196,-53049.11620010331
13350.741666643818,9565.630205348756,-36005.3969628092,-45962.65208275939,-41648.497181951665,-50112.36519960943,-31798.373973175763,-52862.52383739041
13412.231315640369,9568.871208294775,-35994.712828959564,-45975.16905965436,-41476.25463917907,-50120.09890319096,-31636.97202646399,-52828.34802011824
13488.33900551069,9425.39536063616,-36196.66084011327,-46189.81286165868,-41520.26522401157,-50326.4278562579,-31689.36451546723,-53001.81990883588
13436.862938030117,9401.43429058007,-36224.734631149135,-46205.36967579957,-41701.18024363283,-50352.0876588926,-31861.763520451015,-53059.26389208602
13380.178914091459,9571.732231585054,-35999.80902669537,-45961.24392285871,-41658.62252218992,-50122.132911936395,-31811.986185549045,-52867.59768338176
13422.110786689615,9613.150014060739,-35942.6332643787,-45918.641497926896,-41471.80664203246,-50073.696681701746,-31633.283988628864,-52787.46667950949
13472.46926694742,9436.235956696983,-36183.22744169563,-46162.52138167875,-41504.32843021493,-50303.204393768836,-31674.79117808237,-52972.762641043984
13447.971755024404,9380.110726369707,-36246.326416292955,-46225.62035627608,-41685.46696728074,-50373.50063008078,-31856.220287826098,-53072.89845620376
13386.526809516765,9539.098684680306,-36034.297768389915,-45998.459577376794,-41683.14238585739,-50159.90736006587,-31849.31359878941,-52903.762805910446
13407.425690582479,9619.989647864062,-35936.19596197557,-45910.01372456714,-41501.467406924654,-50066.365309520406,-31674.41119842663,-52793.4122435346
13474.503275692854,9472.825762370321,-36137.898103940264,-46124.47871261582,-41480.27795318102,-50269.006224752215,-31665.179927966587,-52951.86375997827
13464.824970343707,9375.528618756369,-36258.351654809914,-46242.54062682875,-41653.83924887649,-50389.07979596613,-31830.895761358235,-53079.8274969849
13381.497667014322,9497.16681208215,-36098.44727497664,-46059.36808101751,-41716.78176126263,-50220.48058753974,-31873.29702058995,-52959.03866994842
13382.570550748176,9612.054778582427,-35952.423328450124,-45914.12644554692,-41549.925988903764,-50082.30210331704,-31713.83967564579,-52812.88061295517
13467.484827933888,9506.085158119817,-36100.45893197762,-46083.9773516628,-41467.716272797144,-50234.91981445788,-31644.50456434543,-52918.06792236184
13473.653909403552,9374.43338327806,-36270.868631704885,-46248.30737689822,-41625.854864818444,-50394.712435568865,-31796.42937140815,-53083.02379644201
13412.74540576284,9484.605131698267,-36120.687260709674,-46076.422462036906,-41704.46595006776,-50236.48443656974,-31860.891802417256,-52973.56730384437
13391.958283419406,9620.23551705307,-35945.82956383581,-45900.06719828453,-41566.73450073415,-50061.13500131786,-31724.14382983969,-52800.721263971485
13472.312804736233,9546.340649883825,-36040.89153300423,-46020.006659031715,-41441.74354574008,-50170.725604382234,-31617.526008787874,-52859.55105537785
13494.396328258077,9391.040729408352,-36242.057233101994,-46226.9614609434,-41572.590657781446,-50370.594903301586,-31744.46156554956,-53044.19881632314
13429.285696659768,9458.721811619022,-36154.57250530392,-46119.85190151357,-41698.565089531556,-50277.65634985642,-31858.410758782717,-52998.33303670085
13386.191533349936,9609.75254890353,-35955.59727616278,-45911.086608301,-41593.17661442478,-50077.96586489271,-31750.0942051523,-52816.27807811238
13447.882348046584,9566.948958271618,-36022.16077115068,-45989.92121099487,-41454.998130202075,-50142.96473776874,-31624.566808291296,-52836.93108998908
13503.895819651583,9416.789939020866,-36223.326471248445,-46203.53683275424,-41537.4537154977,-50348.28786233519,-31714.018489601433,-53017.10850204331
13445.4236561565,9436.928860775097,-36189.26241269856,-46151.36786119555,-41695.748769730184,-50318.00124859825,-31860.936505906167,-53031.99476385055
13390.214847351892,9598.37551097578,-35973.43396823811,-45926.0399253416,-41623.79850432855,-50099.73646399218,-31784.493539869018,-52841.28968015787
13438.964002008915,9592.452298695123,-35989.03548586792,-45952.50439077668,-41461.837764005395,-50115.38268511089,-31636.59204680825,-52813.39470307764
13474.23505475939,9399.310874856816,-36235.50817197659,-46212.47753053636,-41538.683061442745,-50363.598807287075,-31720.589902471296,-53025.57981319187
13433.309010661724,9382.480011281968,-36245.633512214845,-46221.977021929866,-41707.841063480504,-50377.56864757164,-31879.756674737535,-53075.13363064929
13376.31206230069,9556.801266288909,-36024.440649085125,-45978.70063527831,-41665.4845077377,-50145.7363540812,-31827.96768283459,-52880.44993644356
13442.428522399488,9630.00322938004,-35939.72753759951,-45904.090512286486,-41461.90481923876,-50065.38183276437,-31633.798078751337,-52770.993443845924
13507.025063875326,9464.5332651774,-36157.2323628941,-46135.900454032475,-41470.15261294277,-50286.19471623835,-31651.388901637663,-52947.84044597631
13444.484882889377,9365.179761073561,-36275.070759662485,-46245.24518790784,-41687.21040334826,-50400.43448214942,-31858.075482615888,-53083.8284592424
13367.438419751934,9513.5953442568,-36077.59309739985,-46029.14852251393,-41705.15885414587,-50199.380540773935,-31867.060883886923,-52926.18160559912
13390.594827007631,9600.320112743391,-35967.93543910211,-45926.15168406388,-41521.80749437898,-50098.90944944733,-31694.192492269576,-52805.92922042957
13475.173828026514,9471.618768169734,-36139.10509814085,-46119.15899743545,-41474.6900170672,-50277.65634985642,-31660.955448264536,-52943.05717266288
13479.621825173119,9383.843467693743,-36252.24962857361,-46226.69324000993,-41633.63327188889,-50382.95541798537,-31813.14847626072,-53055.08411587288
13393.522905531278,9496.160983581662,-36101.15183605574,-46048.102801812034,-41700.84496746599,-50216.34551481551,-31869.40781705473,-52934.71997198105
13392.584132264154,9612.993551849551,-35946.768337102934,-45898.770797106125,-41529.18357004924,-50065.11361183091,-31700.071001061322,-52778.32481602726
13471.463438446932,9509.348512810291,-36090.512405695015,-46064.28546479767,-41447.86792372083,-50219.16183461688,-31635.07212818529,-52884.58500916779
13483.980415341905,9380.557761258813,-36260.34096006644,-46237.39972560403,-41606.47590237569,-50386.57640058713,-31790.126179471754,-53052.670127471705
13402.731824246863,9466.544922178378,-36145.452993566156,-46098.438930325385,-41719.88865374192,-50264.35706190552,-31885.9257562072,-52983.178553960155
13394.774603220774,9623.163595576716,-35940.06281376634,-45895.17216624882,-41562.375910565366,-50069.18162932177,-31735.453812534073,-52793.76987144588
13460.824008086207,9541.982059715041,-36052.06740523189,-46023.73940035575,-41446.14683939777,-50183.22022953275,-31634.82625899628,-52854.38780240867
13486.752031654363,9384.737537471956,-36254.998893141616,-46230.15776040051,-41577.99977993963,-50388.36454014356,-31764.309914625876,-53043.75178143404
13420.99319946685,9443.857901556243,-36170.08461595591,-46131.921843519434,-41703.14719714489,-50300.0751495451,-31877.20857586963,-52999.808251834904
13389.45488804041,9612.300647771437,-35957.83245060831,-45906.28098324311,-41592.6178208134,-50085.76662370761,-31761.158318657675,-52803.06819713929
13453.693801604963,9577.007243276506,-36001.708924974075,-45970.18462064083,-41436.42383055971,-50133.465246375235,-31619.157686133112,-52806.01862740739
13497.95025562647,9415.00179946444,-36228.37796549535,-46199.84879491911,-41534.771506163066,-50356.602711272564,-31723.070946105832,-53006.71494087159
13439.634554342576,9433.598450851256,-36204.662764628265,-46161.31438747816,-41695.9946389192,-50333.736876694784,-31873.609945012326,-53023.00936257951
13385.520981016278,9592.474650439579,-35981.19002356411,-45933.12542833393,-41623.53028339509,-50111.96286820923,-31798.843359809325,-52826.850453239735
13441.310935176723,9599.358987731814,-35972.60695369327,-45936.3440795355,-41447.91262720974,-50106.33022860649,-31636.480288085975,-52785.052691108314
13486.617921187632,9419.33803788877,-36206.205034995684,-46181.363902254576,-41507.41297094977,-50343.92927216641,-31702.95437609606,-52990.91225754169
13456.33130745069,9406.798709249344,-36222.94649159271,-46185.476623234346,-41671.787699674096,-50354.25577810476,-31858.321351804898,-53035.66044994121
13385.990367649838,9557.315356411382,-36016.28226235894,-45968.061204917576,-41651.06763256402,-50149.40204017187,-31829.219380524086,-52861.965043779026
13409.727920261374,9595.559191174412,-35967.84603212429,-45925.816407897044,-41481.127319470324,-50100.742292492665,-31670.0749600023,-52789.97007488848
13483.086345563692,9449.334078947793,-36168.16236593275,-46140.79548606819,-41471.11373795435,-50296.85649834353,-31669.426759413098,-52944.82296047485
13451.860958559628,9377.249703079427,-36257.74815770962,-46225.15096964252,-41659.762461157145,-50387.73869129881,-31846.117299332298,-53057.40869729623
13374.590977977632,9519.451501304091,-36063.82442281538,-46017.704429352816,-41680.01314163365,-50195.2454680497,-31859.260125072018,-52909.61896295774
13400.921332945984,9615.228726295081,-35943.81790683483,-45903.15173901937,-41492.459653909165,-50072.31087354552,-31681.384942696684,-52768.08771706674
13486.349700254166,9490.014253856452,-36122.162475843725,-46094.63913376798,-41441.11769689533,-50251.61656756599,-31640.391843365654,-52898.35368375226
13462.589795898175,9363.346918028226,-36274.780186984564,-46246.854513508624,-41633.83443758899,-50406.804729319185,-31825.911322344702,-53065.678842744695
13387.532638017254,9488.471983489035,-36108.28204253698,-46057.2223135498,-41698.11805464245,-50233.288137112635,-31878.147349136754,-52940.173797628144
13392.22650435287,9616.458072240124,-35949.51760167094,-45890.388892935385,-41526.47900897014,-50070.902713644835,-31712.297405278376,-52771.03814733484
13460.868711575116,9503.984094141018,-36104.348135512846,-46061.46914499631,-41450.99716794457,-50228.86249171049,-31647.65616031363,-52877.834782342296
13475.822028615717,9372.600540232723,-36265.52656478007,-46235.72334476988,-41599.077474960985,-50399.36159841557,-31793.300127184408,-53046.3222320464
13399.93785618995,9458.49829417447,-36146.41411857773,-46093.58860177858,-41701.44846456629,-50270.25792244171,-31883.042381172465,-52968.60521657529
13370.142980831026,9592.98874056205,-35963.64390416669,-45908.18088152181,-41571.383663580855,-50083.24087658416,-31756.039769177412,-52794.283961568355
13449.245804458358,9525.777044984943,-36052.335626165346,-46018.0620572641,-41438.569598027425,-50182.9967120882,-31637.508468330918,-52837.623994067195
13485.902665365062,9375.930950156564,-36247.08637560444,-46214.89151893753,-41552.31762556048,-50376.182839415414,-31750.340074341308,-53015.96856307609
13425.955286735927,9433.86667178472,-36167.51416534354,-46122.15413119247,-41687.925659170825,-50296.43181519888,-31875.01810491301,-52987.023054006466
13375.46269601139,9585.456202680612,-35973.25515428247,-45917.12157930393,-41600.887966261864,-50098.84239421396,-31783.86769102427,-52809.55020303133
13443.926089277995,9562.009222746996,-36018.4503815711,-45971.57042879706,-41447.71146150964,-50144.59641511398,-31645.532744590375,-52809.97488617598
13493.591665457687,9401.166069646606,-36237.229256299644,-46205.5037862663,-41536.224369552656,-50371.31015912416,-31736.593751501296,-53009.10657752831
13420.501461088832,9397.992121933952,-36237.13984932183,-46185.677788934445,-41717.76523801866,-50357.943815939885,-31906.444657617172,-53044.0200023675
13367.326661029658,9563.976176259062,-36009.88966344472,-45948.74929770819,-41644.6303301609,-50133.42054288633,-31831.119278802787,-52845.804732537836
13429.352751893133,9585.165630002693,-35988.566099234355,-45938.02046036965,-41460.720176782634,-50114.82389149951,-31660.1731372086,-52789.79126093284
13489.702461922463,9418.756892532932,-36207.27791872954,-46170.858582360575,-41505.98245930463,-50338.00605988575,-31710.41985874413,-52978.52939111345
13436.885289774573,9378.814325191299,-36249.8579919169,-46207.24722233382,-41692.79833946208,-50382.30721739617,-31886.26103237403,-53057.05106938494
13372.668727954475,9541.043286447917,-36040.08687020384,-45977.65010328891,-41672.704121196766,-50167.082270036015,-31858.321351804898,-52884.540305678885
13428.70455130393,9616.52512747349,-35951.0822237828,-45896.17799474931,-41468.342121641894,-50076.31183580302,-31663.07886398779,-52763.39385073112
13506.779194686318,9471.886989103197,-36145.98943543308,-46110.4865205868,-41453.2323423901,-50275.4658788998,-31651.88064001568,-52910.55773622486
13463.707383120942,9377.629682735167,-36257.591695498435,-46211.33759156914,-41655.53798145509,-50386.35288314258,-31847.34664527734,-53042.00834536652
13383.97871064886,9517.238678603015,-36072.385140941755,-46008.3614001705,-41686.316333570045,-50194.88784013842,-31868.379636809786,-52896.16321279565
13409.839678983652,9619.699075186143,-35943.19205799008,-45883.258686454144,-41500.439226679715,-50071.461507256216,-31691.64439340167,-52759.92933034055
13484.80742988675,9481.051204329873,-36125.15760960074,-46083.23974409577,-41453.791136001484,-50260.84783802603,-31657.334465662774,-52898.018407585434
13479.398307728567,9375.014528633897,-36259.49159377714,-46217.551376527714,-41621.80919907203,-50392.87959252353,-31819.362261219296,-53038.49912148704
13382.995233892827,9472.579893181311,-36115.43460076268,-46060.84329615156,-41704.19772913429,-50247.347384375025,-31893.41359059973,-52939.212672616566
13385.968015905382,9601.907086599718,-35949.09291852629,-45894.63572438189,-41535.732631174644,-50085.56545800751,-31735.23029508952,-52776.40256600411
13496.251523047868,9530.001524686995,-36051.03922498694,-46017.59267063054,-41408.14887382375,-50194.17258431585,-31619.358851833207,-52831.29845038634
13496.206819558958,9374.679252467067,-36243.77831742505,-46213.930393925955,-41569.59552402443,-50382.57543832963,-31777.13981594322,-53012.52639442997
13405.771661492785,9446.137779490684,-36143.17311563172,-46087.397168564465,-41696.48637729721,-50272.62720735398,-31894.330012122395,-52957.07171643636
13377.541408245732,9588.89837132673,-35950.56813366034,-45889.98656153519,-41562.46531754319,-50084.38081555138,-31765.539260570917,-52780.783507917346
13443.635516600076,9518.155100125683,-36050.50278312001,-46004.06986523508,-41442.50350505156,-50190.66336043637,-31661.380131409187,-52837.221662667
13480.426487973511,9366.364403529693,-36253.50132626311,-46216.14321662703,-41563.22527685467,-50387.55987734317,-31782.43717937913,-53024.10459805782
13417.618086054097,9415.560593075823,-36181.81928179494,-46127.451494628374,-41705.58353729052,-50308.38999848247,-31908.724535551613,-52990.35346393031
13372.914597143485,9574.61560661979,-35974.797424649885,-45911.73480889021,-41607.90641402083,-50099.51294654763,-31812.43322043815,-52802.710569228
13449.983412025382,9564.110286725794,-36000.77015170696,-45951.766783209656,-41438.45783930515,-50129.84426377348,-31654.40638713913,-52790.372406288676
13503.135860340102,9398.95324694553,-36225.51694220507,-46185.45427148989,-41518.678250155244,-50350.59009201409,-31735.118536367245,-52985.2572661945
13437.891118275062,9393.879400954176,-36215.704526389185,-46166.723509636344,-41689.87026093844,-50345.27037683372,-31899.180340669198,-53016.19208052065
13385.856257183106,9563.5067896255,-35979.87127064124,-45918.55209094907,-41615.39424841336,-50111.24761238666,-31821.619787409283,-52811.53950828785
13427.341094892157,9569.519408883978,-35982.776997420435,-45926.50931197516,-41452.02534818952,-50106.21846988422,-31666.677494845095,-52769.54058045633
13483.443973474978,9404.876459226187,-36207.09910477389,-46165.58357066913,-41495.611249877365,-50334.13920809498,-31719.673480948626,-52958.65869029268
13446.56359512372,9370.85710416521,-36240.00087261211,-46189.03055060274,-41662.24350479168,-50365.29753986568,-31875.576898524392,-53020.2153945226
13380.335376302646,9531.36498109877,-36024.61946304077,-45958.80758271308,-41640.78583011458,-50144.708173836254,-31846.564334221406,-52838.09338070075
13411.270190628791,9589.166592260193,-35966.192003034594,-45895.17216624882,-41464.92230474023,-50082.078585872485,-31677.495739161463,-52746.96531855647
13477.788982127784,9432.503215372946,-36171.76099679006,-46122.914090503946,-41460.92134248273,-50297.5717541661,-31688.045762544367,-52917.71029445056
13453.47028416041,9353.780371401355,-36274.780186984564,-46216.41143756049,-41648.56423718503,-50392.49961286779,-31870.16777636621,-53036.62157495279
13393.299388086723,9509.840251188309,-36058.19178321264,-45990.39059762843,-41664.14340307038,-50181.96853184325,-31874.749883979548,-52874.45966892954
13411.985446451361,9607.562077946912,-35925.53417987039,-45867.523058357605,-41476.96989500164,-50059.45862048372,-31695.064210303335,-52735.52122539535
13485.902665365062,9475.083288560307,-36116.88746415228,-46068.532296244186,-41433.40634505825,-50244.59811980702,-31660.061378486324,-52869.07289851581
13469.049450045759,9355.836731891242,-36285.28550687856,-46224.23454811985,-41619.551672882044,-50398.422825148446,-31841.222267296587,-53035.30282202993
13393.545257275731,9475.865599616242,-36120.843722920865,-46042.31369999811,-41685.981057403216,-50230.38241033345,-31900.610852314338,-52923.20882358657
13406.486917315355,9617.128624573783,-35924.43894439208,-45851.20628490523,-41501.73562785812,-50045.9134633438,-31719.785239670902,-52729.620364859155
13466.94838606696,9493.143498080195,-36073.726245609076,-46017.0115252747,-41417.20133032815,-50198.86645065146,-31643.834012011772,-52826.55988056182
13456.174845239502,9336.837749104232,-36265.973599669174,-46205.99552464432,-41576.16693689429,-50391.94081925641,-31800.63149936575,-53017.66729565469
13362.40927724949,9399.221467878993,-36161.814470507445,-46083.01622665122,-41689.02089464914,-50278.39395742345,-31899.917948236223,-52949.65093727719
13327.473500665845,9541.087989936828,-35960.9393430876,-45883.23633470969,-41553.59167499443,-50082.86089692842,-31768.04265594991,-52766.63485367714
13403.067100413693,9494.484602747512,-36051.5086116205,-45985.13793768143,-41423.86215017583,-50170.56914217104,-31654.02640748339,-52811.56186003231
13428.346923392644,9323.739626853423,-36248.96392213868,-46204.207385087895,-41536.8055149085,-50375.73580452631,-31774.547013586405,-52996.70135935562
13324.903050053485,9316.631772116634,-36204.50630241708,-46129.39609639598,-41691.03255165012,-50316.10135031955,-31918.894579278778,-52981.61393184828
13259.077162632604,9450.988108037485,-35976.272639783936,-45895.216869737735,-41581.21843114119,-50089.49936503165,-31811.740316360036,-52778.280112538356
13292.984758971306,9420.85795651173,-36016.28226235894,-45944.30130056159,-41427.10315312185,-50129.553691095556,-31673.94181179307,-52778.86125789419
13333.910803068973,9248.347192805672,-36223.66174741527,-46164.443631701906,-41492.23613646461,-50342.65522273246,-31744.126289382733,-52966.258283407486
13235.943107121362,9201.319122471705,-36231.77543065255,-46160.107393277576,-41665.4845077377,-50339.01188838624,-31901.88490174829,-52996.030807021954
13161.042411451628,9354.674441179568,-36006.402791309694,-45916.383971736905,-41601.22324242869,-50100.80934772603,-31828.749993890524,-52787.153755087114
13182.56714136209,9341.710429395489,-35991.74004694701,-45914.014686824645,-41426.76787695502,-50088.98527490917,-31667.057474500834,-52736.52705389584
13213.479603943779,9135.783807728745,-36227.17097129476,-46161.85082934509,-41475.82995603442,-50327.09840859156,-31725.037899617902,-52940.35261158379
13164.752801031209,9086.609969927069,-36274.53431779556,-46195.49020475033,-41650.93352209729,-50366.10220266607,-31889.99377369807,-53012.92872583017
13066.494532405679,9224.430826238493,-36060.73988208055,-45970.6987107633,-41639.02004230262,-50150.519627394635,-31864.803357696936,-52832.90777598713
13075.97167205473,9264.373393580127,-35987.20264282258,-45909.969021078236,-41462.93299948371,-50080.737481205164,-31691.51028293494,-52730.42502765954
13141.864614708975,9097.584676454626,-36203.79104659451,-46141.08605874611,-41462.620075061335,-50298.77874836668,-31704.675460419116,-52910.401274013675
13110.147489326893,9012.424530079905,-36319.48367589518,-46249.15674318752,-41647.06667030653,-50397.90873502597,-31885.9257562072,-53035.90631913023
13015.6219620254,9134.9567931839,-36135.50646728354,-46041.173761030885,-41678.225002077226,-50201.481604752735,-31903.896558749268,-52883.53447717839
13014.90670620283,9218.932297102487,-36006.87217794325,-45928.65507944287,-41509.91636632876,-50089.074681886996,-31740.95234167008,-52754.40844946009
13105.140698568905,9107.262981803773,-36166.06130195395,-46103.84805248357,-41440.670662006225,-50247.4591430973,-31682.279012474897,-52863.03792751288
13098.189306043305,8986.429451278384,-36312.91226302532,-46248.79911527623,-41608.733428565676,-50394.89124952451,-31843.524496975482,-53013.64398165274
13023.780348751587,9100.08807183362,-36158.2828948835,-46078.63528473798,-41678.560278244055,-50237.64672728142,-31906.087029705886,-52907.89787863468
13007.6200375104,9216.33949474567,-36009.196759366605,-45924.54235846309,-41535.1514858188,-50083.30793181753,-31763.1476239142,-52753.71554538197
13085.851143103975,9124.272659334261,-36145.14006914378,-46073.896714913455,-41449.119621410326,-50226.47085505377,-31687.84459684427,-52843.34604064775
13108.538163726113,8996.890067683467,-36315.683879337776,-46247.122734442084,-41581.68781777476,-50397.90873502597,-31822.20093276512,-53011.78878686295
13018.572392293501,9060.03374576971,-36216.196264767204,-46133.57587260913,-41700.68850525481,-50295.314227976116,-31933.7361375971,-52956.42351584715
13000.646293240345,9223.179128548996,-36013.98003268004,-45929.30328003207,-41570.89192520284,-50099.691760503265,-31804.118371500776,-52767.17129554407
13096.177649042327,9194.05480552373,-36080.230603245574,-46014.17285372887,-41427.32667056641,-50172.759613127666,-31676.55696589434,-52793.07696736777
13147.810178734086,9048.634356097504,-36283.47501557768,-46232.8623214796,-41534.99502360762,-50381.77077552924,-31785.58877534733,-52987.06775749538
13075.614044143444,9084.285388503718,-36231.84248588592,-46170.76917538276,-41688.66326673785,-50332.19460632737,-31925.644806104283,-52984.69847258311
13032.00579071114,9252.437562040992,-36021.423163583655,-45951.990300654215,-41607.48173087618,-50126.335039893995,-31840.082328329365,-52801.95060991652
13119.110538853472,9266.429754070015,-36031.503800333005,-45979.43824284533,-41431.30528107945,-50141.10954297895,-31679.93207930709,-52777.095470082226
13197.609865380511,9129.435912303437,-36239.30796853399,-46198.9547251409,-41490.13507248581,-50349.04782164667,-31744.573324271838,-52961.4526583496
13163.814027764087,9136.119083895575,-36239.330320278445,-46191.01985585927,-41660.81299314654,-50349.04782164667,-31905.662346561236,-53008.972467061576
13100.938570611308,9297.521030607348,-36032.263759644484,-45975.750205010205,-41626.57012064101,-50139.16494121134,-31862.63523848477,-52834.51710158791
13161.578853318555,9341.12928403965,-35995.11516035976,-45943.094306361,-41441.497676551066,-50095.780205223586,-31690.191530012078,-52760.48812395193
13252.103418362549,9203.621352150602,-36206.16033150677,-46166.20941951388,-41462.57537157242,-50311.38513223948,-31720.925178638125,-52940.71023949507
13235.272554787703,9175.681671581468,-36254.35069255241,-46210.354114813104,-41628.76059159763,-50358.68142350691,-31877.141520636265,-53017.086150298856
13168.105562699506,9332.210938001983,-36067.020722272486,-45999.15248145491,-41632.850960832955,-50161.49433392219,-31875.755712480037,-52862.993224023965
13217.391159223458,9418.376912877193,-35976.65261943968,-45914.75229439167,-41446.86209522034,-50070.746251433644,-31704.407239485652,-52753.89435933762
13321.326770940635,9300.516164364359,-36159.288723383994,-46111.96173572085,-41416.463722761124,-50252.28711989965,-31681.496701418964,-52891.69286390458
13314.129509226026,9228.543547218269,-36278.57998354197,-46217.23845210534,-41602.38553314037,-50361.00600493026,-31856.175584337187,-53021.40003697873
13241.307525790637,9365.000947117918,-36098.38021974328,-46023.94056605585,-41649.77123138562,-50178.63812191941,-31885.70223876265,-52884.33913997879
13254.159778852438,9467.506047189958,-35979.24542179649,-45903.37525646392,-41482.893107282296,-50055.10003031493,-31726.55781824086,-52754.095525037716
13356.97780334685,9367.057307607807,-36129.71736546962,-46079.99874114976,-41409.892309891264,-50212.16573860237,-31673.092445503768,-52879.153535265155
13364.085658083637,9256.326765576216,-36281.44100683225,-46240.19369366094,-41578.96090495121,-50365.275188121224,-31835.209648038108,-53038.85674939832
13282.39003209949,9358.496589481425,-36144.93890344368,-46086.59250576407,-41669.59722871747,-50219.54181427263,-31913.97719549861,-52935.368172570255
13276.779744241208,9485.5886084543,-35969.74593040299,-45919.692029916296,-41509.78225586203,-50052.52957970257,-31763.70641752558,-52773.29567352482
13360.59878594861,9403.803575492331,-36091.406475473224,-46056.79763040515,-41401.71157142062,-50174.90538059537,-31669.0244280129,-52847.83874128327
13391.98063516386,9275.482210574415,-36268.99108517064,-46242.54062682875,-41539.42066900977,-50353.317004837634,-31804.05131626741,-53021.80236837893
13327.24998322129,9355.814380146789,-36161.032159451504,-46122.623517826025,-41652.00640583115,-50241.44652383882,-31903.628337815804,-52956.8481989918
13302.193677686892,9517.149271625194,-35962.03457856591,-45914.998163580676,-41524.28853801353,-50042.13601853085,-31778.637382821726,-52771.77575490186
13387.197361850425,9481.095907818784,-36031.146172421715,-45996.49262386473,-41378.97984730957,-50110.91233621983,-31648.192602180556,-52796.586191247254
13421.641400056053,9315.044798260307,-36246.28171280405,-46232.728211012865,-41499.41104643477,-50336.17321684041,-31769.651981550694,-53002.177536747164
13348.417085220468,9341.218691017471,-36205.154503006284,-46181.43095748794,-41663.02581584761,-50295.00130355374,-31925.533047382007,-53008.570135661386
13304.764128299252,9502.26300981796,-35987.314401544856,-45950.023347142145,-41573.12709964837,-50077.94351314825,-31832.482735214562,-52817.440368824056
13371.64054770953,9494.708120192066,-36007.18510236563,-45979.14767016741,-41407.27715578999,-50096.98719942418,-31669.538518135374,-52791.5123452559
13438.628725842087,9335.340182225727,-36212.79879961,-46205.10145486611,-41468.789156531,-50312.368608995515,-31729.754117697972,-52975.37779514525
13391.578303763665,9330.04281878982,-36213.67051764375,-46190.57282097016,-41632.73920211067,-50315.58726019708,-31889.814959742424,-53017.80140612143
13335.341314714113,9499.558448738868,-35993.662296970164,-45954.2478268442,-41579.296181118036,-50084.89490567386,-31825.24077001104,-52818.64736302464
13377.31789080118,9527.051094418895,-35967.35429374627,-45935.45000975728,-41407.83594940138,-50059.14569606134,-31660.866041286714,-52757.358879728185
13442.450874143944,9362.743420927933,-36193.53159588952,-46173.83136437314,-41441.6317870178,-50289.212201739814,-31706.441248231084,-52947.304004109385
13417.551030820732,9324.678400120545,-36242.9513028802,-46215.91969918248,-41613.404943156835,-50341.13530410949,-31872.224136856097,-53028.53024345997
13348.037105564727,9478.771326395432,-36042.120878949274,-45995.77736804216,-41614.27666119059,-50128.16788293933,-31862.903459418234,-52858.545226877366
13364.733858672842,9536.438827090124,-35968.91891585814,-45928.58802420951,-41449.27608362152,-50054.47418147018,-31702.172065040122,-52759.5046471959
13448.619955613609,9399.646151023646,-36159.847516995374,-46132.972375508834,-41425.09149612087,-50252.577692577564,-31697.589957426782,-52917.397370028186
13437.689952574963,9323.98549604243,-36267.47116654768,-46233.33170811316,-41598.96571623871,-50359.03905141819,-31868.044360642954,-53040.421371510194
13367.192550562926,9463.549788421367,-36078.28600147796,-46030.53433067016,-41639.198856258256,-50166.590531658,-31896.296965634465,-52894.75505289496
13379.061326868694,9568.200655961116,-35941.29215971138,-45897.78732035009,-41469.16913618674,-50036.6598411393,-31731.05051887638,-52747.859388334684
13446.742409079363,9438.225261953505,-36116.52983624099,-46095.04146516818,-41414.519120993515,-50215.406741548395,-31692.627870157707,-52879.46645968753
13446.429484656988,9316.676475605545,-36267.60527701441,-46245.55811233022,-41583.38655035336,-50368.18091490042,-31861.271782072996,-53045.29405180145
13380.067155369183,9431.899718272653,-36111.50069373855,-46072.51090675723,-41652.542847698074,-50208.27653506715,-31919.051041489965,-52935.43522780362
13381.005928636305,9580.225894478071,-35926.09297348178,-45888.913677801334,-41491.16325273076,-50023.360553188395,-31760.42071109065,-52755.92836808305
13449.111693991625,9486.706195677067,-36050.6592453312,-46023.292365466645,-41390.84862361534,-50159.50502866567,-31677.383980439186,-52844.50833135943
13475.397345471067,9344.906728852598,-36237.98921561113,-46213.72922822586,-41524.66851766926,-50339.95066165336,-31809.885121570245,-53016.2144322651
13415.092338930648,9423.204889679539,-36124.263539822525,-46092.06868315562,-41636.58370215699,-50220.927622428855,-31903.31541339343,-52934.27293709194
13363.526864472255,9558.745868056521,-35947.43888943659,-45897.47439592772,-41530.32350901646,-50039.297346985026,-31790.014420749478,-52759.63875766263
13446.764760823819,9523.720684495054,-36004.18996860862,-45971.19044914132,-41386.78060612448,-50107.045484429065,-31659.279067430387,-52788.1595835876
13497.927903882017,9372.399374532626,-36202.60640413838,-46185.968361612366,-41476.053473478976,-50310.334600250084,-31753.491670309508,-52973.96963524457
13432.32553390569,9401.657808024622,-36165.502508342564,-46129.08317197361,-41631.62161488791,-50262.725384560275,-31895.537006322982,-52972.06973696587
13390.728937474363,9571.41930716268,-35944.08612776829,-45899.30723897305,-41541.83465741094,-50039.56556791849,-31802.754915089004,-52776.91665612658
13441.534452621276,9557.360059900291,-35964.89560185619,-45935.271195801644,-41383.15962352272,-50066.94645487624,-31654.45109062804,-52762.20920827499
13500.990092872393,9394.393491076647,-36177.21482243715,-46161.6943671339,-41441.45297306216,-50285.43475692687,-31721.394565271687,-52949.09214366581
13433.733693806375,9368.152543086117,-36213.044668799004,-46176.06653881867,-41630.36991719841,-50310.334600250084,-31904.030669216,-53012.83931885235
13362.878663883052,9520.479681549035,-36004.32407907535,-45949.66571923086,-41596.26115515961,-50095.28846684557,-31864.73630246357,-52830.02440095239
13407.090414415648,9557.807094789398,-35969.25419202497,-45919.669678171835,-41417.469551261616,-50056.709355915715,-31697.835826615792,-52756.86714135017
13468.28949073428,9392.00185441993,-36186.37903766382,-46158.47571593234,-41446.884446964796,-50282.2161057253,-31733.57626599983,-52941.40314357319
13435.56653685171,9341.285746250838,-36246.41582327078,-46211.6058125026,-41621.18335022728,-50344.26454833324,-31900.297927891963,-53031.346563261344
13372.892245399029,9503.40294878518,-36034.23071315655,-45983.215687658274,-41614.76839956861,-50125.9327084938,-31884.8752242178,-52858.0758402438
13415.56172556421,9592.497002184034,-35934.20665671905,-45890.41124467984,-41427.32667056641,-50032.32360271497,-31706.441248231084,-52739.45513241948
13462.232167986891,9420.120348944707,-36158.796985005974,-46131.74302956379,-41431.41703980172,-50259.48438161426,-31716.208960558055,-52919.47608226253
13440.014533998316,9327.025333288353,-36265.6606752468,-46231.543568556735,-41597.02111447109,-50360.64837701897,-31876.35920958033,-53040.62253721029
13365.6055767066,9463.147457021172,-36084.67860039218,-46029.662612636406,-41636.65075739035,-50170.68090089332,-31901.30375639245,-52895.89499186218
13381.36355654759,9580.427060178168,-35953.42915695062,-45905.29750648708,-41478.44511013569,-50042.9630330757,-31748.931914440625,-52757.33652798373
13458.454723173943,9457.827741840809,-36117.826237419395,-46087.64303775347,-41410.04877210245,-50212.36690430247,-31692.337297479786,-52875.42079394112
13453.269118460312,9322.89026056412,-36264.4089775573,-46243.211179162405,-41568.67910250177,-50369.49966782328,-31850.833517412368,-53033.53703421796
13390.17014386298,9443.34381143377,-36112.64063270576,-46065.76067993172,-41643.3786324714,-50211.09285486852,-31916.83821878889,-52912.25646880346
13383.17404784847,9588.361929459803,-35936.50888639795,-45878.989503263176,-41490.224479463635,-50024.545195644525,-31763.37114135875,-52727.13932122461
13448.597603869153,9491.534172479413,-36050.48043137556,-46024.63347013396,-41391.318010248906,-50153.00067102917,-31676.489910660974,-52810.10899664271
13468.781229112295,9340.414028217081,-36253.85895417439,-46227.363792343596,-41527.32837525944,-50352.91467343744,-31813.215531494086,-53004.52446991497
13399.669635256487,9411.604334307234,-36158.50641232805,-46109.01130545275,-41648.76540288513,-50254.45523911181,-31922.761431069546,-52958.010489703476
13373.249873310313,9571.79928681842,-35946.276598724915,-45893.36167494794,-41524.02031708006,-50044.95233833222,-31796.898758041712,-52762.902112353106
13457.605356884642,9542.27263239296,-35989.5942794793,-45956.43829780082,-41362.081928501364,-50094.84143195646,-31648.818451025305,-52769.2053042895
13500.81127891675,9381.205961848016,-36206.02622104004,-46178.03349233073,-41459.15555467076,-50309.552289194144,-31745.8920771947,-52957.74226877002
13407.045710926737,9369.024261119874,-36204.819226839456,-46158.967454310354,-41645.05501330555,-50302.57854492409,-31918.894579278778,-52989.9064290412
13348.148864287003,9523.966553684062,-35999.87608192874,-45935.71823069075,-41578.40211133983,-50089.00762665363,-31854.700369203136,-52806.95740067452
13409.660865028009,9527.319315352359,-36001.91009067417,-45956.32653907854,-41410.4734552471,-50097.36717907991,-31701.41210572864,-52777.922484627066
13482.19227578548,9377.204999590516,-36205.087447772916,-46175.37363474055,-41461.34602562738,-50311.519242706214,-31756.12917615523,-52961.60912056078
13444.887214289573,9370.208903576005,-36212.55293042099,-46169.78569862672,-41618.5234926371,-50315.76607415272,-31900.096762191864,-52999.5623826459
13382.235274581346,9535.053018933895,-35999.630212739736,-45939.58508248151,-41578.62562878438,-50088.784109209075,-31848.017197611,-52804.342246573244
13423.071911701192,9573.386260674746,-35954.34557847328,-45904.783416364604,-41406.606603456334,-50049.981480834664,-31681.519053163418,-52734.60480387269
13507.069767364237,9430.379799649692,-36148.55988604545,-46119.829549769114,-41406.405437756235,-50254.075259456076,-31697.36643998223,-52903.47223323253
13473.877426848107,9369.404240775615,-36224.108782304385,-46185.051940089696,-41588.25923064462,-50327.65720220294,-31874.258145601532,-53003.87626932577
13388.382004306557,9506.6439517312,-36029.8050677544,-45984.31092313659,-41609.80631229953,-50136.952118510264,-31885.45636957364,-52858.14289547717
13402.50830680231,9576.336690942848,-35937.961749787544,-45904.448140197776,-41437.92139743822,-50053.825980880974,-31722.266283305442,-52755.615443660674
13494.351624769168,9456.7325063625,-36109.042001848466,-46086.88307844199,-41388.18876602516,-50226.739075987236,-31679.417989184618,-52880.338177721285
13493.546961968776,9371.23708382095,-36224.64522417131,-46194.909059394486,-41554.03870988354,-50339.86125467554,-31836.90838061671,-53005.418539693186
13408.833850483163,9485.812125898854,-36056.94008552314,-46009.90367053791,-41610.968603011206,-50162.746031611685,-31881.79068348297,-52883.04273880038
13405.592847537142,9585.478554425068,-35912.369002386215,-45874.452099138754,-41449.56665629943,-50023.11468399938,-31721.439268760598,-52733.3978096721
13485.232113031401,9476.290282760892,-36065.92548679418,-46051.7684879027,-41372.989579795554,-50178.83928761951,-31652.037102226866,-52834.80767426582
13488.562522955242,9348.974746343463,-36239.64324470082,-46214.08685613714,-41538.03486085354,-50349.53956002469,-31812.276758226963,-53006.82669959387
13407.805670238218,9445.891910301676,-36108.86318789282,-46063.43609850837,-41637.9248068243,-50215.69731422631,-31900.63320405879,-52927.23213758852
13386.347995561124,9575.576731631367,-35927.81405780483,-45886.58909637798,-41488.23517420711,-50034.22350099367,-31757.0455976779,-52746.07124877826
13487.132011310103,9514.869393690753,-36015.67876525864,-45984.8026615146,-41355.21994295358,-50131.92297600782,-31637.866096242204,-52795.960342402504
13514.557601756766,9364.352746528715,-36213.4470001992,-46187.13065232404,-41487.38580791781,-50325.82435915761,-31769.406112361685,-52982.887981282234
13433.979562995382,9417.304029143337,-36129.96323465863,-46089.38647382098,-41618.367030425914,-50238.92077671537,-31888.205634141643,-52939.23502436102
13395.869838699084,9575.867304309286,-35929.04340374987,-45873.80389854955,-41506.67536338275,-50030.28959396954,-31774.547013586405,-52743.165521999064
13465.987261055383,9539.07633293585,-35986.39798002219,-45942.91549240536,-41356.24812319853,-50085.654864985336,-31635.29564562984,-52753.62613840415
13513.507069767365,9378.590807746747,-36198.225462225135,-46168.80222187069,-41444.96219694164,-50296.87885008799,-31727.00485312997,-52941.76077148447
13442.51792937731,9389.81138346331,-36172.655066568266,-46122.95879399285,-41610.7227338222,-50268.93916951885,-31880.829558471392,-52959.08337343733
13385.409222294,9547.07825745085,-35965.856726867765,-45904.55989892005,-41541.36527077738,-50054.20596053672,-31810.958005304103,-52776.42491774856
13439.366333409112,9551.258033663993,-35971.0423315814,-45924.60941369646,-41378.175184509186,-50065.38183276437,-31657.468576129508,-52746.607690645185
13507.29328480879,9398.260342867416,-36179.07001722694,-46141.17546572393,-41424.59975774286,-50279.95857953532,-31708.497608720972,-52926.51688176595
13454.654926616542,9372.265264065894,-36212.21765425416,-46159.21332349937,-41595.590602825956,-50303.4726147023,-31871.844157200358,-52984.67612083866
13386.057422883205,9528.839233975319,-35993.46113127007,-45928.67743118732,-41565.88513444485,-50082.34680680595,-31831.096927058334,-52798.93312441506
13415.069987186193,9559.528179112456,-35952.26686623894,-45902.45883494125,-41399.342286508356,-50049.26622501209,-31675.662896116126,-52733.666030605564
13494.441031746988,9409.167994161606,-36150.75035700206,-46118.7343142908,-41401.53275746498,-50253.69527980033,-31694.37130622522,-52900.92413436463
13470.815237857729,9350.293499266327,-36223.92996834874,-46182.816765644166,-41574.75877699361,-50323.32096377861,-31858.321351804898,-52994.86851631028
13389.544295018231,9490.930675379119,-36036.13061143525,-45976.62192304396,-41603.19019594076,-50133.800522542064,-31872.11237813382,-52846.76585754941
13415.874649986585,9577.23076072106,-35926.02591824841,-45875.32381717251,-41417.871882661806,-50022.153558987804,-31692.89609109117,-52717.34925715319
13493.122278824125,9445.53428239039,-36111.053658849436,-46073.56143874663,-41370.91086756121,-50201.347494286005,-31656.798023795847,-52848.62105233921
13475.442048959978,9343.18564452954,-36250.059157617,-46194.39496927202,-41550.84241042643,-50330.85350166005,-31829.666415413194,-52990.509926141494
13393.209981108903,9461.716945376033,-36088.277231249485,-46018.665554364394,-41619.3728589264,-50169.742127626196,-31890.26199463153,-52885.99316906848
13394.931065431962,9575.174400231172,-35932.26205495144,-45870.27232292561,-41449.14197315478,-50019.49370139762,-31721.953358883067,-52724.032428745326
13495.62567420312,9491.623579457233,-36058.8623355463,-46009.32252518208,-41345.36282364879,-50146.20574071476,-31630.422965338585,-52796.63089473616
13506.779194686318,9359.770638915377,-36227.97563409515,-46182.77206215526,-41502.808511591975,-50318.180062553896,-31783.71122881308,-52969.16401018668
13428.011647225816,9449.602299881257,-36101.80003664494,-46038.379792973974,-41602.05025697354,-50190.66336043637,-31869.720741477104,-52889.32357899232
13403.827059725174,9584.964464302595,-35919.40980188964,-45858.49295359766,-41467.783328030506,-50015.96212577369,-31738.404242802175,-52721.95371651098
13495.446860247477,9528.995696186506,-36007.855654699284,-45962.249751359195,-41334.812800265885,-50106.9784291957,-31619.381203577665,-52766.54544669932
13524.05709315027,9377.339110057248,-36211.234177498125,-46175.50774520728,-41460.89899073827,-50310.401655483445,-31748.61899001825,-52956.535274569425
13441.199176454447,9419.919183244609,-36144.80479297695,-46088.00066566475,-41605.8724052754,-50238.87607322646,-31881.321296849408,-52930.85312019028
13398.999082922826,9572.64865310772,-35942.74502310098,-45870.69700607026,-41496.46061616667,-50029.26141372459,-31768.24382165001,-52734.82832131724
13459.214682485424,9530.69442876511,-36008.41444831067,-45951.67737623184,-41355.68932958714,-50092.78507146658,-31639.20720090952,-52750.362783713674
13506.421566775032,9370.6112349762,-36217.09033454541,-46163.21428575686,-41442.50350505156,-50308.05472231564,-31729.999986886978,-52937.737457482515
13449.178749224991,9392.046557908841,-36183.830938795916,-46120.388343380495,-41601.871443017895,-50275.443527155345,-31873.565241523414,-52948.063963420864
13394.931065431962,9556.913025011185,-35964.98500883401,-45889.45011966826,-41528.62477643786,-50054.29536751454,-31797.9045865422,-52755.906016338595
13447.748237579852,9559.461123879091,-35966.39316873469,-45904.582250664505,-41360.85258255632,-50058.43044023877,-31644.3704538787,-52723.96537351196
13506.779194686318,9393.253552109427,-36188.793026064996,-46138.627366856024,-41413.66975470421,-50281.14322199145,-31700.60744292825,-52908.009637356954
13466.94838606696,9369.247778564428,-36210.65303214229,-46153.312462963164,-41584.951172465226,-50307.16065253743,-31865.608020497326,-52968.426402619654
13407.448042326932,9532.88489972173,-35991.024791124444,-45917.21098628175,-41549.68011971475,-50074.9707311357,-31822.044470553934,-52780.20236256151
13432.951382750438,9566.099591982316,-35946.835392336296,-45880.88940154188,-41381.6173531553,-50034.24585273813,-31658.049721485346,-52706.6427715591
13515.272857579335,9423.897793757653,-36136.42288880621,-46089.81115696563,-41372.54254490644,-50233.48930281273,-31662.45301514304,-52861.00391876745
13488.09313632168,9355.300290024315,-36224.17583753775,-46166.92467533644,-41553.435212783246,-50315.83312938608,-31838.182430050663,-52964.805420017896
13396.94272243294,9482.25819853046,-36047.731166807556,-45971.7492427527,-41590.80732951252,-50135.275737676115,-31864.78100595248,-52827.275136384385
13412.074853429182,9565.317280926381,-35937.93939804308,-45867.50070661315,-41418.274214062,-50030.40135269181,-31697.098219048767,-52706.21808841445
13488.070784577225,9430.290392671872,-36120.66490896522,-46070.25338056724,-41372.87782107328,-50217.39604680491,-31671.527823391894,-52852.577311107794
13478.750107139364,9332.076827535251,-36259.58100075495,-46196.92071639546,-41550.976520893164,-50343.39283029948,-31841.423432996686,-52990.53227788595
13403.13415564706,9458.095962774272,-36082.82340560239,-46003.48871987924,-41605.157149452825,-50167.66341539186,-31881.656573016237,-52857.56175012133
13392.137097375047,9570.726403084565,-35942.54385740088,-45864.61733157842,-41445.81156323094,-50023.651125866316,-31723.69679495058,-52705.68164654752
13462.500388920354,9457.425410440614,-36080.20825150111,-46032.12130452649,-41364.51826864699,-50180.0462818201,-31661.134262220177,-52813.12648214418
13475.151476282059,9324.723103609456,-36257.41288154279,-46204.94499265492,-41516.5995379209,-50345.65035648947,-31805.705345357102,-52977.47885912405
13399.356710834112,9417.929877988086,-36138.85922895184,-46059.5245432287,-41624.178483984295,-50215.47379678176,-31889.36792485332,-52895.11268080625
13382.704661214908,9565.965481515585,-35940.912180055646,-45858.89528499786,-41468.29741815298,-50018.77844557506,-31738.51600152445,-52704.47465234693
13470.122333779615,9509.527326765934,-36031.79437301092,-45962.94265543731,-41336.08684969984,-50109.146548407865,-31619.135334388655,-52746.942966812014
13519.206764603468,9374.768659444888,-36201.84644482689,-46152.79837284069,-41447.644406276275,-50294.889544831465,-31732.235161332508,-52922.58297474182
13450.251632958847,9432.05618048384,-36141.00499641955,-46058.0716798391,-41575.63049502736,-50211.85281418,-31847.167831321698,-52884.607360912254
13395.199286365425,9572.782763574454,-35954.47968894002,-45856.973034974704,-41494.71718009916,-50019.18077697525,-31756.464452322063,-52712.38716988411
13461.695726119964,9541.825597503854,-35979.066607840854,-45914.55112869157,-41334.4551723546,-50067.617007209905,-31617.45895355451,-52714.041198973806
13528.035703663314,9396.293389355349,-36178.77944454902,-46124.25519517127,-41402.71739992111,-50264.02178573868,-31689.766846867427,-52881.34400622178
13453.939670793972,9389.319645085294,-36180.902860272276,-46106.15028216247,-41584.951172465226,-50259.19380893634,-31857.628447726784,-52919.341971795795
13383.822248437673,9535.500053823002,-35984.69924744359,-45891.12650050241,-41530.97170960566,-50059.637434439355,-31803.984261034046,-52751.54742616981
13430.447987371444,9535.209481145082,-35984.60984046577,-45899.57545990652,-41363.266570957494,-50051.389640735346,-31650.181907437076,-52709.03440821581
13511.942447655494,9388.38087181817,-36167.02242696553,-46116.052104956165,-41385.931239835176,-50254.36583213399,-31680.781445596393,-52872.42566018411
13469.585891912688,9363.436325006047,-36210.27305248655,-46127.138570206,-41561.79476520953,-50281.72436734729,-31838.987092851057,-52930.65195449018
13406.777489993274,9526.089969407318,-36005.53107327593,-45904.26932624213,-41542.97459637816,-50066.208847309215,-31811.20387449311,-52754.72137388246
13436.505310118833,9571.776935073965,-35925.221255448014,-45850.401622104844,-41354.884666786755,-50012.56466061648,-31641.978817221978,-52666.14141060608
13514.2893808233,9427.876404270697,-36133.87478993831,-46063.01141536372,-41350.59313185133,-50216.45727353779,-31647.298532402343,-52830.158511419126
13483.935711852993,9349.354725999205,-36232.82596264195,-46155.94996880889,-41546.19324757973,-50312.703885162344,-31828.079441556867,-52954.25539663499
13407.157469649013,9490.394233512192,-36040.310387648395,-45944.25659707268,-41573.39532058183,-50114.309801377036,-31843.368034764295,-52805.72805472947
13412.968923207394,9565.116115226283,-35939.571075388325,-45849.842828493456,-41399.09641731935,-50014.553965873005,-31682.055495030345,-52686.92853294952
13497.749089926374,9438.649945098156,-36105.71159192462,-46039.58678717456,-41348.53677136145,-50189.679883680335,-31642.761128277914,-52812.63474376616
13502.889991151094,9343.677382907556,-36240.35850052339,-46166.27647474724,-41508.70937212818,-50316.74955090875,-31798.1057522423,-52947.21459713156
13420.99319946685,9456.39723019567,-36091.16060628422,-45991.48583310674,-41585.42055909879,-50160.57791239952,-31865.853889686336,-52842.78724703637
13434.806577540228,9596.632074908266,-35894.01822018841,-45811.10725535241,-41406.271327289505,-49985.56375331447,-31694.661878903138,-52669.695337974474
13502.979398128915,9487.108527077262,-36051.57566685387,-45982.47808009125,-41327.03439319544,-50140.595452856476,-31628.07603217078,-52771.64164443513
13522.067787893748,9361.7599441719,-36234.03295684254,-46155.23471298632,-41472.49954611058,-50308.61351592702,-31765.315743126364,-52934.27293709194
13419.808557010718,9423.026075723896,-36134.05360389395,-46042.11253429801,-41600.887966261864,-50207.24835482221,-31880.56133753793,-52883.46742194503
13394.595789265131,9562.098629724816,-35940.42044167763,-45854.96137797373,-41471.136089698804,-50019.717218842175,-31752.28467610892,-52704.72052153594
13478.548941439265,9505.727530208533,-36021.24434962802,-45949.173980852844,-41331.79531476442,-50107.35840885144,-31626.042023425347,-52741.287975464824
13515.29520932379,9355.90378712461,-36224.55581719349,-46149.84794257259,-41449.16432489924,-50305.59603042556,-31742.248742848486,-52923.38763754221
13449.782246325285,9410.620857551201,-36156.003016949064,-46055.50122922674,-41579.02796018457,-50224.347439330515,-31863.037569884968,-52889.480041203504
13401.07779515717,9559.952862257107,-35951.797479605375,-45847.09356392545,-41492.794930076,-50023.44996016622,-31766.880365238234,-52709.50379484938
13469.071801790215,9534.449521833601,-35978.53016597393,-45900.08955002899,-41328.5543118184,-50065.448887997736,-31613.905026186116,-52707.84976575968
13529.91325019756,9386.100993883729,-36186.40138940828,-46115.850939256066,-41398.82819638589,-50273.18600096536,-31687.84459684427,-52886.50725919095
13458.365316196123,9377.696737968534,-36194.313906945456,-46100.964677448836,-41579.58675379596,-50267.2180851958,-31853.15809883572,-52916.59270722779
13386.012719394294,9532.951954955097,-35983.15697707617,-45880.01768350812,-41529.89882587181,-50055.8152861375,-31794.328307429354,-52737.33171669623
13434.717170562408,9546.206539417093,-35965.007360578464,-45881.96228527574,-41357.29865518793,-50044.08062029846,-31637.39670960864,-52695.10927142016
13501.392424272588,9387.710319484511,-36184.36738066285,-46110.9335554759,-41389.12753929228,-50259.19380893634,-31678.613326384228,-52872.917398562124
13466.344888966667,9358.541292970336,-36218.67730840174,-46130.22311094083,-41562.13004137636,-50290.79917559614,-31839.59058995135,-52935.61404175926
13406.978655693372,9526.626411274245,-35994.98104989303,-45887.03613126709,-41530.65878518329,-50065.784164164565,-31805.593586634826,-52750.92157732506
13424.636533813064,9563.193865203128,-35954.233819751,-45852.34622387245,-41365.23352446956,-50015.738608329135,-31646.60562832423,-52672.46695428693
13487.221418287923,9398.103880656228,-36169.637581066796,-46089.94526743237,-41381.32678047738,-50240.99948894972,-31667.54921287885,-52850.85622678474
13465.584929655186,9327.18179549954,-36240.045576101016,-46170.18803002692,-41554.955131406205,-50330.33941153758,-31834.62850268227,-52961.58676881633
13398.552048033722,9480.805335140865,-36038.902227747705,-45943.83191392803,-41565.50515478911,-50115.94147872228,-31837.19895329463,-52792.78639468985
13409.504402816821,9566.926606527162,-35927.99287176048,-45824.71946772569,-41389.28400150347,-49997.87956450934,-31665.582259366784,-52655.81490466773
13494.95512186946,9445.310764945838,-36086.444388204145,-46005.50037688022,-41318.183102391136,-50166.70229038028,-31608.182979605554,-52776.20140030401
13487.355528754655,9339.698772394511,-36224.578168937944,-46142.829494813624,-41492.10202599788,-50304.07611180259,-31772.892984496713,-52927.90268992218
13396.138059632547,9438.58288986479,-36071.7145886081,-45969.71523400727,-41569.12613739087,-50142.16007496835,-31837.243656783543,-52812.321819343786
13378.770754190775,9550.162798185684,-35910.02206921841,-45802.32301978148,-41408.10417033484,-49972.26446536356,-31677.093407761266,-52637.88880561457
13448.03881025777,9442.15916897764,-36038.81282076989,-45963.81437347107,-41310.069419153864,-50116.6790862893,-31598.30350855631,-52733.68838235002
13450.743371336863,9295.039986972808,-36225.78516313853,-46148.17156173844,-41464.51997334004,-50304.07611180259,-31751.90469645318,-52918.76082643996
13345.086675296627,9350.271147521871,-36122.92243515521,-46023.18060674437,-41586.13581492136,-50191.11039532547,-31857.24846807104,-52857.897026288156
13294.839953761097,9471.372898980726,-35916.77229604391,-45816.65048797733,-41437.586121271386,-49986.83780274842,-31713.012661100944,-52658.51946574682
13340.92925082794,9384.625778749678,-35995.629250482234,-45909.90196584487,-41298.58062250383,-50069.852181655435,-31590.189825319034,-52695.39984409808
13337.084750781627,9195.91000031352,-36221.80655262549,-46123.76345679325,-41421.1799408412,-50274.63886435496,-31711.73861166699,-52885.83670685729
13231.942144863862,9201.788509105267,-36164.42962460871,-46049.46625822381,-41575.04934967153,-50217.06077063808,-31846.854906899323,-52869.83285782729
13149.330097357048,9316.36355118317,-35942.61091263425,-45842.98084294568,-41479.00390374707,-50013.928117028256,-31749.401301074184,-52687.599085283175
13178.722641315777,9266.586216281203,-36002.11125637427,-45912.22654726822,-41339.35020439031,-50068.84635315494,-31621.59402627874,-52699.266695888844
13219.6710371579,9090.879153118034,-36226.5004189611,-46142.11423899105,-41420.174112340705,-50279.82446906859,-31706.195379042078,-52886.52961093541
13149.017172934673,9075.456449443871,-36221.42657296974,-46118.95783173536,-41581.03961718555,-50261.965425248796,-31855.125052347787,-52904.99215185549
13091.662596662354,9242.491035758381,-35979.40188400768,-45871.2781514261,-41520.53344494503,-50029.82020733598,-31784.67235382466,-52707.46978610394
13126.196041845804,9264.619262769134,-35965.432043723114,-45855.52017158511,-41337.472657856066,-50005.34504715742,-31615.179075620068,-52650.18226506499
13198.973321792284,9105.117214336064,-36182.19926145068,-46078.590581249075,-41365.09941400283,-50213.23862233623,-31648.483174858473,-52819.07204616929
13125.749006956697,9014.793814992168,-36242.03488135754,-46156.12878276453,-41568.14266063484,-50290.396844195944,-31839.702348673625,-52920.683076463116
13021.232249883682,9138.130740896553,-36070.2617252185,-45956.68416698983,-41575.9657711942,-50102.30691460454,-31842.384558008263,-52774.703833425505
13067.835637072998,9213.277305755295,-35961.87811635472,-45871.38991014838,-41377.23641124206,-50012.743474572126,-31656.08276797328,-52662.72159370442
13144.07743741005,9065.934606305911,-36157.187659405194,-46079.842278938566,-41354.16941096418,-50207.09189261102,-31639.78834626536,-52806.532717529866
13112.293256794603,8973.130163327476,-36271.20390787171,-46186.99654185731,-41543.421631267265,-50317.9788968538,-31816.791810606937,-52929.66847773415
13034.86681400142,9109.408749271483,-36079.7165131231,-45978.79004225612,-41574.62466652688,-50118.06489444553,-31836.506049216518,-52774.0556328363
13048.993116497173,9210.617448165112,-35975.06564558335,-45870.07115722551,-41408.39474301276,-50006.7532070581,-31676.154634494145,-52647.76827666382
13146.022039177662,9097.13764156552,-36138.12162138482,-46054.36129025952,-41344.20053293712,-50176.6935201518,-31626.600817036728,-52773.4074322471
13143.40688507639,8980.215666319807,-36281.59746904343,-46202.754521698305,-41515.392543720314,-50325.62319345751,-31790.327345171852,-52926.42747478813
13092.958997840762,9120.47286277686,-36123.81650493342,-46024.20878698931,-41583.900640475826,-50157.11339200895,-31847.994845866546,-52803.80580470632
13094.322454252537,9253.599852752668,-35963.37568323323,-45858.56000883103,-41419.95059489615,-49986.860154492875,-31692.113780035234,-52636.346535247154
13174.095830213528,9159.834284762655,-36088.29958299394,-46015.44690316283,-41332.53292233145,-50136.43802838779,-31620.185866378055,-52736.83997831822
13198.347472947535,9020.06882668362,-36271.986218927654,-46206.33080081115,-41485.754130572575,-50328.05953360314,-31770.031961206434,-52922.9406026531
13132.052198893094,9102.770281168256,-36179.561755604955,-46088.425348809404,-41613.71786757921,-50221.061732895585,-31883.243546872563,-52868.26823571542
13117.456509763779,9264.753373235866,-35979.759511918965,-45882.54343063157,-41481.842575292896,-50022.9582217882,-31752.172917386644,-52680.267713101835
13208.56222016361,9220.742788403368,-36031.83907649983,-45962.83089671504,-41324.64275653872,-50092.13687087737,-31606.283081326856,-52696.65154178757
13262.653441745453,9081.55847568017,-36237.810401655486,-46174.9489515959,-41429.539493267475,-50295.22482099829,-31710.196341299576,-52875.9795875525
13216.161813278415,9133.459226305393,-36195.87852905733,-46114.39807586648,-41590.7179225347,-50252.77885827766,-31868.245526343053,-52880.405232954654
13182.634196595454,9306.260562689373,-35978.19488980709,-45889.94185804628,-41501.80268309149,-50034.7599428606,-31772.267135651964,-52687.174402138524
13234.602002454043,9281.427774599526,-36013.28712860193,-45943.094306361,-41346.72628006057,-50080.335149804974,-31630.445317083042,-52688.40374808357
13321.483233151823,9150.223034646873,-36205.55683440648,-46151.010233284265,-41398.29175451896,-50280.137393490964,-31688.202224755554,-52863.75318333545
13275.304529107158,9153.508741081803,-36219.16904677976,-46146.15990473746,-41574.49055606015,-50283.981893537275,-31854.230982569574,-52905.75211116697
13210.976208564784,9313.658990104079,-36001.999497651996,-45920.56374795005,-41533.6539189403,-50077.5188300036,-31810.689784370636,-52729.553309625786
13272.175284883415,9352.394563245125,-35970.79646239239,-45898.94961106177,-41353.45415514161,-50049.86972211239,-31643.409328867117,-52669.24830308537
13349.422913720957,9198.413395692516,-36187.83190105342,-46125.75276204977,-41380.79033861045,-50268.179210207374,-31681.384942696684,-52853.761953563924
13327.629962877032,9173.602959347125,-36216.95622407868,-46144.304709947675,-41545.41093652379,-50298.84580360005,-31836.48369747206,-52919.207861329065
13251.790493940174,9323.22553673095,-36020.81966648337,-45926.21873929724,-41547.44494526922,-50091.309856332526,-31819.898703086223,-52738.829283574734
13293.454145604866,9391.934799186563,-35931.61385436224,-45852.34622387245,-41359.913809289195,-50007.28964892503,-31645.085709701267,-52629.97628807739
13362.901015627505,9237.864224656132,-36146.72704300011,-46081.0269213947,-41360.98669302305,-50225.353267831,-31655.099291217244,-52806.867993696695
13365.69498368442,9179.325005927683,-36232.98242485314,-46162.36491946756,-41526.926043859254,-50312.010981084226,-31815.115429772788,-52919.274916562434
13300.047910219182,9321.146824496607,-36040.22098067057,-45963.52380079315,-41557.39147155183,-50123.38460962589,-31835.63433118276,-52777.31898752678
13302.618360831542,9414.10772968623,-35916.79464778837,-45849.149924415346,-41392.770873638496,-50006.015599491075,-31674.902936804647,-52639.74400040436
13387.800858950719,9301.857269031676,-36080.52117592349,-46033.976499316275,-41329.11310542979,-50177.855810863475,-31628.388956593153,-52763.68442340904
13397.926199188973,9195.239447979862,-36226.03103232754,-46183.82259414466,-41484.435377649716,-50321.801045155655,-31784.04650497991,-52920.57131774084
13324.50071865329,9311.334408680726,-36073.94976305363,-46011.53534788315,-41566.354521078414,-50167.864581091955,-31850.49824124554,-52815.42871182308
13303.467727120844,9429.463378127024,-35916.16879894362,-45858.53765708657,-41423.90685366474,-50011.670590838265,-31710.196341299576,-52657.22306456841
13378.815457679684,9332.769731613365,-36053.453213388115,-46011.20007171632,-41328.30844262939,-50150.229054716714,-31626.600817036728,-52748.1499610126
13408.789146994251,9197.765195103311,-36232.557741708486,-46195.825480917156,-41459.602589559865,-50329.91472839293,-31760.018379690457,-52924.3934660427
13352.194530033414,9288.110946191662,-36114.205254817636,-46061.82677290759,-41561.63830299834,-50196.27364829465,-31851.504069746028,-52851.45972388503
13317.012884260761,9438.33702067578,-35939.05698526585,-45859.02939546459,-41440.89417945078,-50006.12735821335,-31726.736632196506,-52674.322149076725
13384.984539149349,9377.00383389042,-36013.823570468856,-45957.1982571123,-41316.17144539016,-50097.456586057735,-31616.721345987484,-52720.09852172119
13444.931917778484,9236.612526966635,-36196.72789534663,-46158.967454310354,-41406.65130694524,-50287.558172650126,-31712.81149540085,-52892.51987844943
13389.052556640216,9282.925341478032,-36145.11771739933,-46088.73827323178,-41539.84535215442,-50217.82072994956,-31835.92490386068,-52871.241017727974
13322.913744796962,9429.597488593756,-35952.75860461695,-45877.40252940685,-41470.577296087424,-50021.37124793187,-31759.124309912244,-52698.57379181073
13382.414088536989,9417.013456465418,-35980.541822974905,-45912.65123041287,-41313.98097443354,-50051.389640735346,-31616.050793653823,-52692.71763476344
13441.489749132366,9255.320937075727,-36197.35374419138,-46145.80227682618,-41379.09160603185,-50263.351233405025,-31687.106989277243,-52879.779384109905
13397.769736977785,9256.840855698689,-36186.37903766382,-46125.4398376274,-41530.301157272006,-50248.867302997984,-31832.996825337035,-52909.79777691338
13329.149881499992,9416.164090176117,-35984.98982012151,-45903.2858494861,-41492.884337053816,-50033.41883819328,-31786.661659081183,-52734.20247247249
13370.41120176449,9439.6781253431,-35952.579790661315,-45894.36750344843,-41326.162675161686,-50009.68128558175,-31632.054642683823,-52682.59229452519
13444.775455567296,9288.066242702753,-36149.67747326821,-46114.53218633321,-41337.964396234085,-50215.116168870474,-31652.79706153835,-52851.72794481849
13395.89219044354,9225.347247761161,-36234.167067309274,-46189.00819885829,-41534.771506163066,-50291.894411074456,-31839.43412774016,-52959.3515943708
13321.527936640732,9377.204999590516,-36031.36968986627,-45972.77742299765,-41543.66750045628,-50090.616952254415,-31842.093985330343,-52802.956438417015
13350.965184088373,9447.322421946816,-35936.77710733141,-45896.200346493766,-41366.93225704816,-50008.72016057017,-31672.22072747001,-52699.557268566765
13450.18457772548,9324.834862331732,-36106.20333030264,-46088.8276802096,-41320.03829718093,-50184.293113266605,-31640.302436387832,-52831.52196783089
13431.520871105298,9237.663058956035,-36226.83569512793,-46188.51646048027,-41496.50531965558,-50291.15680350743,-31808.901644814214,-52957.027012947445
13344.93021308544,9360.865874393687,-36050.63689358674,-46007.19910945882,-41554.15046860582,-50119.29424039057,-31849.715930189603,-52833.33245913178
13348.30532649819,9461.96281456504,-35911.83256051929,-45881.090567241976,-41377.01289379751,-49989.34119812742,-31690.213881756532,-52697.50090807687
13429.643324571052,9342.090409051229,-36074.62031538729,-46063.07847059709,-41317.02081167946,-50152.71009835126,-31644.661026556616,-52809.77372047588
13437.108807219125,9226.084855328185,-36229.2496835291,-46214.690353237434,-41477.41692989074,-50301.08097804558,-31799.3574499318,-52963.93370198413
13356.106085313093,9329.7522461119,-36088.7689696275,-46053.556627459126,-41563.26998034358,-50155.347604196984,-31870.59245951086,-52868.245883970965
13356.486064968833,9476.111468805251,-35897.14746441215,-45860.28109315409,-41393.93316435017,-49966.83299146092,-31707.312966264843,-52680.3347683352
13430.380932138078,9385.139868872151,-36024.88768397423,-46006.75207456971,-41291.36100904477,-50096.897792446354,-31618.35302333272,-52758.23059776195
13452.173882982002,9239.764122934834,-36219.146695035306,-46199.178242585454,-41432.35581306885,-50286.37353019399,-31757.470280822552,-52940.35261158379
13381.274149569768,9311.088539491719,-36120.01670837602,-46078.05413938214,-41550.37302379287,-50174.90538059537,-31861.49529951755,-52881.00873005495
13363.750381916809,9480.514762462946,-35909.17270292911,-45858.649415808846,-41418.028344873,-49961.15564836928,-31730.67053922064,-52681.05002415777
13429.464510615411,9428.032866481884,-35985.68272419962,-45948.16815235235,-41278.77697691643,-50043.18655052025,-31609.702898228516,-52713.72827455143
13469.09415353467,9269.35783259366,-36204.5957093949,-46164.510686935275,-41387.42880671368,-50258.99264323624,-31720.098164093277,-52910.62479145823
13402.910638202506,9295.822298028743,-36167.44711011018,-46114.375724122016,-41542.32639578896,-50222.49224454072,-31867.083235631377,-52919.11845435124
13351.434570721935,9452.239805726982,-35956.491345940995,-45892.355846447455,-41470.6890548097,-50001.76876804457,-31783.420656135164,-52720.41144614357
13423.317780890202,9456.129009262206,-35939.92870329961,-45912.539471690594,-41290.489291011014,-50007.24494543612,-31623.02453792388,-52682.68170150301
13472.536322180787,9288.200353169485,-36175.583145091914,-46150.96552979536,-41356.203419709615,-50237.24439588123,-31695.69005914808,-52880.56169516584
13412.298370873736,9269.246073871383,-36197.15257849128,-46155.92761706444,-41534.32447127396,-50257.539779846644,-31862.344665806853,-52938.855044705284
13350.764018388274,9432.860843284232,-35979.73716017451,-45922.59775669548,-41493.13020624283,-50034.24585273813,-31812.880255327258,-52748.19466450151
13400.384891079057,9469.025965812918,-35937.604121876255,-45893.674599370315,-41316.5514250459,-49992.96218072918,-31642.470555599997,-52672.86928568713
13473.966833825927,9319.738664595921,-36148.11285115634,-46114.91216598894,-41332.48821884253,-50206.62250597746,-31671.527823391894,-52850.18567445108
13442.4732258884,9271.011861683353,-36201.22059598215,-46167.25995150327,-41503.03202903653,-50267.37454740698,-31835.142592804743,-52936.21753885956
13358.40831499199,9413.683046541577,-36012.057782656884,-45962.07093740356,-41520.64520366731,-50071.39445202285,-31835.768441649492,-52779.97884511696
13374.970957633372,9480.917093863141,-35929.93747352809,-45879.86122129694,-41353.11887897478,-49989.251791149596,-31677.36162869473,-52682.05585265826
13469.965871568427,9354.629737690657,-36102.00120234504,-46071.61683697902,-41309.98001217604,-50164.10948802346,-31646.69503530205,-52813.506461799916
13454.543167894266,9261.601777267668,-36219.19139852421,-46177.80997488618,-41477.88631652431,-50275.39882366644,-31809.259272725496,-52940.75494298398
13381.676480969963,9393.968807931997,-36033.13547767824,-45985.56262082608,-41518.11945654386,-50087.15243186384,-31840.30584577392,-52801.50357502742
13375.46269601139,9486.169753810138,-35904.03180170438,-45859.29761639806,-41360.02556801147,-49969.045814162,-31689.342163722777,-52667.19194259548
13459.259385974336,9372.578188488269,-36061.09750999183,-46030.22140624779,-41284.81194791936,-50125.48567360469,-31626.913741459102,-52776.49197298193
13477.029022816305,9260.595948767179,-36209.289575730516,-46177.653512674995,-41432.10994387984,-50263.977082249774,-31769.227298406044,-52926.44982653258
13388.471411284378,9342.448036962514,-36074.32974270937,-46035.786990617155,-41529.00475609359,-50133.9346330088,-31852.867526157803,-52844.64244182616
13354.854387623596,9458.788866852388,-35930.339804928284,-45875.770852061614,-41406.137216822775,-49980.914590467764,-31730.357614798264,-52691.510640562854
13443.121426477603,9393.499421298435,-36020.32792810535,-45985.49556559272,-41279.671046694646,-50087.13008011939,-31622.219875123486,-52748.1499610126
13484.829781631206,9264.306338346762,-36194.515072645554,-46159.258026988275,-41395.5201382065,-50260.557265348114,-31739.07479513583,-52910.84830890278
13418.266286643302,9333.529690924846,-36100.704801166634,-46048.12515355649,-41518.0971047994,-50160.64496763289,-31847.63721795526,-52856.46651464302
13378.323719301668,9480.06772757384,-35903.31654588182,-45847.02650869209,-41404.796112155454,-49965.84951470489,-31735.029129389422,-52674.389204310086
13430.336228649168,9417.304029143337,-35993.10350335878,-45952.66085298787,-41281.995628118,-50056.03880358205,-31629.037157182356,-52717.23749843091
13472.871598347618,9259.612472011146,-36211.16712226476,-46177.40764348598,-41387.09353054685,-50271.33080617557,-31739.611237002762,-52913.37405602623
13421.641400056053,9297.632789329624,-36165.54721183148,-46117.102636945565,-41538.99598586512,-50229.08600915504,-31881.209538127132,-52915.45276826058
13348.573547431655,9430.692724072067,-35973.63513393821,-45905.833948354004,-41472.41013913276,-50027.92030905728,-31808.499313414017,-52731.38615267112
13390.281902585257,9413.370122119204,-35971.91404961515,-45929.41503875435,-41300.86050043828,-50037.44215219524,-31645.242171912454,-52695.37749235362
13449.402266669544,9253.465742285936,-36187.16134871976,-46164.8459631021,-41356.09166098734,-50255.304605401114,-31704.31783250783,-52885.32261673482
13416.724016275886,9256.170303365028,-36193.86687205635,-46148.216265227355,-41519.30409899999,-50256.19867517933,-31856.30969480392,-52919.274916562434
13355.636698679531,9421.19323267856,-35976.78672990641,-45920.384933994406,-41480.54617411449,-50037.196283006226,-31812.209702993598,-52732.839016060716
13394.372271820579,9455.30199471736,-35928.953996772056,-45885.784433577595,-41296.90424166968,-50003.221631434164,-31651.902991760137,-52670.34353856368
13476.00084257136,9304.22655394394,-36133.11483062683,-46104.585660050594,-41305.733180729534,-50208.36594204497,-31668.689151846072,-52836.93108998908
13448.083513746682,9253.398687052571,-36201.46646517116,-46164.82361135764,-41489.06218875196,-50271.64373059794,-31833.935598604156,-52928.8414631893
13368.466599996878,9395.131098643673,-35999.831378439834,-45952.750259965695,-41497.62290687834,-50071.28269330057,-31831.96864509209,-52770.59111244573
13388.896094429028,9468.06484080134,-35906.423438361104,-45864.14794494485,-41321.28999487043,-49979.43937533371,-31664.017637254914,-52655.97136687891
13481.566426940732,9346.516054453381,-36078.978905556076,-46049.89094136846,-41272.09380532429,-50153.64887161838,-31627.405479837118,-52783.57747597426
13467.507179678343,9245.441466026481,-36201.57822389343,-46172.691425405916,-41451.62301678932,-50279.42213766839,-31802.15141798871,-52925.06401837635
13377.876684412562,9358.98832785944,-36044.356053394804,-45991.44112961783,-41515.77252337605,-50111.15820540884,-31852.59930522434,-52799.26840058189
13373.518094243776,9463.706250632555,-35907.25045290595,-45852.301520383546,-41348.71558531709,-49973.38205258633,-31692.672573646614,-52651.724535432404
13458.007688284837,9357.088429580741,-36053.56497211039,-46020.92308055438,-41268.40576748917,-50126.893833505375,-31627.472535070487,-52759.97403382946
13453.067952760215,9216.20538427894,-36234.21177079818,-46200.20642283039,-41435.552112525955,-50301.93034433488,-31795.401191163208,-52940.82199821735
13379.620120480076,9316.520013394358,-36092.09937955134,-46040.01147031921,-41534.72680267415,-50163.84126709,-31879.98019218209,-52849.82804653979
13358.251852780802,9451.278680715404,-35920.750906556954,-45856.54835183005,-41395.02839982849,-49980.40050034529,-31740.840582947803,-52669.53887576328
13435.700647318441,9372.891112910642,-36033.381346867245,-45984.91442023688,-41274.23957279201,-50090.43813829877,-31636.72615727498,-52732.50373989389
13485.388575242589,9244.413285781537,-36205.40037219529,-46163.77307936825,-41380.70093163263,-50266.18990495085,-31741.399376559184,-52892.31871274933
13422.51311808981,9314.776577326844,-36100.05660057743,-46045.62175817749,-41501.2438894801,-50165.65175839088,-31846.58668596586,-52841.78141853588
13373.31692854368,9457.358355207249,-35908.56920582881,-45844.59016854646,-41399.63285918628,-49964.66487224876,-31740.684120736616,-52655.94901513446
13431.878499016584,9407.089281927263,-35981.88292764222,-45930.0408875991,-41254.95001732707,-50036.83865509494,-31616.296662842833,-52680.22300961292
13469.09415353467,9237.551300233758,-36199.83478782592,-46159.548599666196,-41369.078024515875,-50261.965425248796,-31730.625835731727,-52886.66372140214
13403.201210880425,9252.281099829806,-36169.52582234452,-46115.38155262251,-41528.71418341568,-50224.79447421962,-31877.923831692202,-52892.922209849625
13348.193567775914,9415.828814009288,-35952.35627321676,-45881.73876783118,-41448.1808481432,-50001.388788388824,-31790.372048660764,-52693.544649308285
13413.08068192967,9430.268040927416,-35942.11917425623,-45892.065273769535,-41273.81488964736,-49999.77946278804,-31622.488096056954,-52653.87030290012
13460.354621452645,9256.393820809582,-36172.722121801635,-46139.119105234044,-41336.66799505568,-50233.89163421293,-31690.862082345735,-52854.49956113095
13399.155545134014,9221.212175036928,-36210.13894201982,-46159.45919268837,-41523.305061257495,-50266.4134223954,-31866.34562806435,-52921.800663685885
13320.723273840342,9370.320662298282,-36014.62823326924,-45942.13318134942,-41509.536386673026,-50060.978539106676,-31842.943351619644,-52754.564911671274
13361.291690026725,9416.722883787499,-35956.37958721872,-45899.329590717505,-41331.75061127551,-50012.05057049401,-31678.65802987314,-52677.71961423393
13438.114635719614,9267.100306403674,-36151.13033665781,-46120.34363989159,-41327.63789029574,-50220.502939284204,-31686.391733454675,-52841.35673539123
13412.343074362645,9206.460023696425,-36230.188456796226,-46186.70596917939,-41506.31773547146,-50292.296742474646,-31849.11243308931,-52933.535329524915
13359.481198725844,9370.52182799838,-36006.15692212068,-45952.549094265596,-41498.06994176745,-50074.7695654356,-31834.226171282076,-52759.43759196253
13379.843637924629,9449.177616736606,-35910.066772707316,-45860.392851876364,-41325.715640272574,-49980.75812825658,-31673.807701326336,-52646.44952374095
13467.3283657227,9326.287725721328,-36080.83410034586,-46046.560531444615,-41278.8440321498,-50156.21932223074,-31639.54247707635,-52772.13338281315
13471.28462449129,9246.536701504792,-36196.616136624354,-46152.66426237396,-41432.24405434657,-50262.68068107137,-31786.214624192075,-52888.80948886985
13392.584132264154,9369.583054731256,-36037.11408819129,-45968.21766712877,-41495.43243592172,-50088.225315597694,-31830.605188680314,-52763.86323736468
13383.688137970941,9472.289320503392,-35895.873414978196,-45837.14703764285,-41344.28993991494,-49957.780534956524,-31682.524881663907,-52628.255203754336
13462.232167986891,9365.738554684944,-36038.2540271585,-46006.573260614074,-41262.527258697424,-50115.91912697782,-31614.799095964325,-52735.63298411763
13470.032926801792,9236.389009522081,-36220.01841306906,-46177.4523469749,-41424.06331587593,-50288.83222208408,-31775.91046999818,-52910.84830890278
13385.453925782911,9316.452958160991,-36103.38701050127,-46040.8161331196,-41530.5023229721,-50165.18237175731,-31870.793625210958,-52836.64051731116
13362.632794694042,9451.636308626688,-35912.83838901978,-45854.044956451056,-41394.51430970601,-49986.860154492875,-31735.00677764497,-52664.19680883847
13455.548996394755,9396.583962033268,-35999.85373018429,-45956.170076867355,-41248.71388062405,-50073.09318460145,-31607.53477901635,-52699.66902728904
13477.319595494224,9241.507559002348,-36214.54223567751,-46176.37946324104,-41382.846699100344,-50277.72340508979,-31738.22542884653,-52887.17781152461
13411.359597606612,9299.353873652683,-36121.02253687651,-46070.342787545065,-41516.89011059882,-50187.847040634995,-31856.82378492639,-52841.55790109133
13362.40927724949,9448.44000916958,-35921.28734842388,-45859.342319886964,-41413.66975470421,-49986.70369228169,-31757.358522100276,-52660.195846580966
13431.56557459421,9411.984313962974,-35974.8421281388,-45929.79501841009,-41259.33095924032,-50045.153504032314,-31616.296662842833,-52672.69047173148
13477.297243749768,9244.882672415099,-36196.21380522416,-46162.90136133449,-41352.94006501914,-50266.435774139856,-31716.052498346868,-52875.04081428538
13421.909620989516,9262.317033090238,-36160.36160711785,-46120.678916058416,-41512.35270647439,-50230.04713416662,-31866.1221106198,-52883.1321457782
13362.364573760578,9425.641229825167,-35944.39905219067,-45889.15954699034,-41440.55890328394,-50015.64920135131,-31788.24863293751,-52694.32696036422
13401.346016090634,9428.368142648715,-35964.06858731134,-45911.31012574556,-41290.355180544284,-50032.457713181706,-31646.426814368584,-52674.255093843356
13463.66267963203,9266.094477903185,-36187.07194174194,-46143.07536400263,-41342.47944861406,-50253.002375722215,-31706.575358697817,-52859.282834444384
13433.554879850732,9251.431733540503,-36187.40721790877,-46141.309576190666,-41491.36441843086,-50255.01403272319,-31845.334988276365,-52893.056320316355
13379.441306524433,9422.53433734588,-35953.987950562,-45895.32862846001,-41447.97968244311,-50019.56075663099,-31792.026077750455,-52695.69041677599
13407.60450453812,9456.330174962304,-35917.21933093302,-45872.46279388223,-41284.9460583861,-49982.05452943499,-31644.281046900876,-52629.84217761066
13489.747165411374,9314.396597671104,-36111.053658849436,-46079.52935451619,-41277.905258882674,-50183.28728476611,-31652.1712126936,-52791.44529002253
13472.916301836527,9257.131428376608,-36187.38486616431,-46142.762439580256,-41447.666758020736,-50251.6612710549,-31808.745182603026,-52882.66275914464
13395.132231132058,9392.7171102425,-35995.74100920451,-45932.253710300174,-41468.789156531,-50053.356594247416,-31821.195104264632,-52726.49112063541
13397.054481155215,9458.96768080803,-35900.567281313815,-45845.41718309131,-41304.28031733994,-49961.17800011373,-31668.622096612704,-52610.99965703484
13490.842400889684,9344.414990474581,-36068.58534438436,-46027.405086446415,-41251.08316553631,-50135.49925512067,-31626.801982736826,-52738.58341438573
13475.531455937798,9232.92448913151,-36208.06022978547,-46166.9470270809,-41429.09245837837,-50276.47170740029,-31795.58000511885,-52889.345930736774
13386.03507113875,9341.933946840041,-36055.21900120008,-45989.809452272595,-41505.535424415524,-50116.902603733855,-31861.137671606266,-52778.2577607939
13378.658995468497,9454.027945283407,-35901.886034236675,-45839.493970810654,-41343.10529745881,-49969.93988394021,-31707.558835453852,-52625.103607786135
13457.627708629097,9349.533539954846,-36051.66507383169,-46001.38765590044,-41255.6876248941,-50115.427388599805,-31633.954540962524,-52715.47171061894
13471.061107046737,9222.150948304052,-36220.42074446926,-46175.46304171837,-41404.39378075526,-50280.5173731467,-31777.609202576783,-52877.07482303081
13395.020472409782,9314.307190693282,-36097.642612176256,-46032.166008015396,-41515.59370942041,-50156.37578444192,-31876.69448574716,-52809.34903733123
13382.436440281444,9463.996823310474,-35905.529368582895,-45828.943947427746,-41367.69221635965,-49962.49675303659,-31731.296388065388,-52624.209538007926
13457.56065339573,9395.980464932974,-35993.952869648085,-45941.75320169368,-41238.32031945233,-50061.5149809736,-31612.228645351966,-52669.96355890793
13493.546961968776,9244.033306125797,-36187.742494075595,-46144.34941343658,-41357.49982088802,-50257.60683508001,-31733.106879366267,-52850.52095061791
13415.114690675104,9285.607550812669,-36130.11969686981,-46067.9735026328,-41506.98828780512,-50189.41166274687,-31867.194994353653,-52830.493787585954
13377.474353012367,9449.267023714427,-35920.68385132359,-45846.15479065834,-41401.935088865175,-49976.08661366542,-31758.699626767593,-52633.150235790046
13453.38087718259,9431.899718272653,-35949.137622015194,-45889.3830644349,-41236.64393861818,-50014.01752400608,-31605.187845848544,-52625.50593918633
13506.890953408594,9274.722251262934,-36163.15557517476,-46117.77318927922,-41307.834244708334,-50227.18611087634,-31680.73674210748,-52808.79024371985
13438.18169095298,9277.963254208953,-36153.141993658784,-46093.901526200956,-41483.5413078715,-50220.19001486183,-31843.1668690642,-52841.08851445777
13377.161428589992,9440.683953843589,-35933.759621829944,-45860.01287222062,-41420.665850718724,-49999.51124185458,-31775.217565920066,-52652.23862555488
13427.65401931453,9450.071686514817,-35926.80822930434,-45864.43851762277,-41249.63030214671,-49997.58899183143,-31618.82240996628,-52612.69838961344
13481.275854262813,9274.521085562836,-36156.83003149391,-46107.40197985196,-41303.11802662826,-50228.191939376826,-31681.94373630807,-52810.37721757618
13428.726903048386,9229.817596652221,-36211.100067031395,-46146.0928495041,-41490.11272074136,-50266.97221600678,-31858.321351804898,-52886.39550046867
13373.048707610216,9400.249648123938,-35977.72550317353,-45903.241145997185,-41469.92909549822,-50044.19237902074,-31828.079441556867,-52703.535879079805
13409.392644094545,9452.060991771341,-35909.15035118465,-45848.568779059504,-41284.275506052436,-49981.898067223796,-31653.0205789829,-52610.93260180147
13480.225322273413,9298.638617830113,-36118.02740311949,-46074.85783992503,-41287.02477062044,-50194.619619204954,-31661.69305583156,-52774.30150202531
13455.638403372575,9227.984753606886,-36204.372191950344,-46149.691480361405,-41456.20512440266,-50279.489192901754,-31829.197028779632,-52880.964026566035
13380.98357689185,9367.794915174833,-36003.541768019415,-45939.406268525876,-41480.076787480924,-50082.235048083676,-31842.093985330343,-52728.3463154252
13400.22842886787,9464.35445122176,-35895.873414978196,-45829.12276138339,-41305.800235962895,-49965.201314115686,-31670.83491931378,-52595.241677193844
13478.727755394908,9335.206071758994,-36072.18397524166,-46028.83559809156,-41253.94418882659,-50152.50893265116,-31636.323825874788,-52733.21899571646
13482.125220552114,9244.323878803716,-36200.21476748166,-46144.304709947675,-41413.535644237476,-50273.09659398754,-31790.86378703878,-52863.86494205773
13381.02828038076,9333.462635691481,-36071.37931244127,-45989.63063831695,-41504.66370638177,-50129.061952717544,-31872.291192089462,-52769.674690923064
13380.827114680662,9454.49733191697,-35892.49830156545,-45827.178159615774,-41332.3541083758,-49965.827162960435,-31708.162332554144,-52602.997732519834
13466.411944200034,9370.14184834264,-36025.53588456343,-45971.972760197255,-41237.00156652946,-50099.66940875881,-31619.425907066576,-52684.022806170324
13495.849191647672,9246.02261138232,-36189.843558054396,-46142.44951515788,-41375.224754241084,-50260.93724500385,-31753.0446354204,-52842.83195052528
13415.025283697283,9328.254679233394,-36082.465777691104,-46011.892975794435,-41496.3935609333,-50147.94917678228,-31859.014255883012,-52780.29176953933
13386.07977462766,9468.35541347926,-35895.71695276701,-45821.97020315769,-41354.90701853121,-49959.92630242423,-31726.75898394096,-52601.053130752225
13459.460551674432,9406.754005760433,-35988.70020970109,-45924.028268340626,-41229.15610422565,-50050.830847123965,-31612.20629360751,-52639.98986959337
13489.970682855926,9250.738829462389,-36187.65308709778,-46137.71094533336,-41355.018777253485,-50258.76912579169,-31737.778393957426,-52830.58319456378
13415.762891264307,9291.374300882138,-36136.48994403958,-46062.296159541154,-41494.493662654604,-50193.166755815364,-31873.632296756783,-52815.115787400704
13374.367460533078,9454.474980172514,-35927.27761593791,-45831.42499106228,-41392.43559747167,-49973.426756075234,-31764.645190792704,-52616.25231698183
13440.975659009893,9429.664543827123,-35957.944209330584,-45885.002122521655,-41237.18038048511,-50019.784274075544,-31620.342328589242,-52616.5205379153
13488.987206099893,9263.278158101817,-36172.990342735095,-46117.102636945565,-41323.03343093794,-50243.94991921782,-31712.85619888976,-52815.27224961189
13436.3711996521,9270.810695983255,-36157.612342549844,-46086.45839529734,-41486.379979417325,-50226.26968935367,-31865.45155828614,-52840.95440399103
13391.55595201921,9449.669355114622,-35930.764488072935,-45843.629043534886,-41410.54051048047,-49989.4976603386,-31781.408999134186,-52637.061791069726
13426.737597791864,9452.552730149357,-35925.936511270585,-45854.46963959571,-41253.81007835986,-49989.78823301652,-31635.16153516311,-52598.885011540064
13493.256389290857,9289.36264388116,-36149.94569420168,-46088.00066566475,-41291.11513985576,-50210.33289555704,-31684.380076453697,-52781.275246295365
13445.490711389866,9244.59209973718,-36189.88826154331,-46122.757628292755,-41471.78429028801,-50249.94018673184,-31849.045377855946,-52854.25369194194
13369.628890708553,9393.074738153784,-35971.82464263733,-45891.79705283607,-41443.08465040739,-50027.47327416817,-31813.953139061112,-52673.76335546534
13390.348957818624,9430.759779305432,-35912.659575064135,-45835.13538064187,-41264.87419186523,-49965.35777632687,-31642.627017811184,-52578.50022059682
13454.587871383175,9266.11682964764,-36114.406420517735,-46050.002700090736,-41259.91210459615,-50174.32423523954,-31645.532744590375,-52742.338507454224
13431.006780982827,9192.668997367502,-36190.02237201004,-46127.74206730629,-41422.901025164254,-50254.00820422271,-31802.889025555734,-52846.83291278278
13337.800006604197,9321.280934963339,-35989.01313412347,-45918.842663626994,-41446.39270858678,-50056.75405940462,-31819.07168854138,-52697.165631910044
13329.328695455635,9389.09612764074,-35883.62465901669,-45811.7107524527,-41278.70992168307,-49944.23537781661,-31657.915611018612,-52569.112487925595
13380.26832106928,9234.042076354275,-36081.28113523497,-46007.48968213674,-41237.80622932986,-50132.52647310811,-31628.456011826518,-52708.58737332671
13355.793160890718,9099.70809217788,-36227.953282350696,-46155.10060251959,-41408.55120522394,-50281.456146413824,-31796.183502219144,-52866.05541301434
13242.782740924686,9178.743860571845,-36052.22386744307,-45981.31578937957,-41482.602534604375,-50117.86372874543,-31853.426319769183,-52750.519245924865
13212.764348121209,9277.896198975588,-35880.987153170965,-45802.859461648404,-41308.79536971991,-49934.9370521232,-31679.1274165067,-52561.267025621775
13265.559168524644,9150.960642213899,-36025.759402007985,-45965.960140938776,-41219.85777853224,-50086.86185918592,-31610.038174395348,-52663.57095999372
13251.52227300671,8989.424585035395,-36225.583997438436,-46159.056861288176,-41371.49201291705,-50271.84489629804,-31767.975600716545,-52851.34796516276
13144.725637999254,9046.376829907516,-36107.969118114604,-46023.62764163347,-41480.97085725914,-50151.10077275048,-31857.561392493415,-52777.922484627066
13101.229143289227,9181.426069906482,-35881.45653980452,-45805.56402272749,-41326.87793098425,-49938.31216553595,-31699.66866966113,-52568.55369431421
13157.957870716797,9100.490403233815,-35979.71480843006,-45918.01564908215,-41201.61875505671,-50026.06511426748,-31585.406552005596,-52607.71395059991
13175.548693603123,8925.610354615494,-36185.61907835234,-46135.02873599872,-41314.338602344826,-50238.92077671537,-31705.703640664062,-52803.91756342859
13082.610140157956,8947.805636859614,-36143.48604005409,-46062.45262175234,-41473.930057755715,-50188.58464820202,-31849.44770925614,-52800.698912227024
13029.457691843236,9102.032673601232,-35945.60604639126,-45845.52894181359,-41384.321914234395,-49977.070090421454,-31756.3973970887,-52614.195956491945
13092.534314696111,9083.100746047587,-35964.314456500346,-45893.540488903585,-41219.902482021156,-50002.68518956724,-31603.936148159046,-52593.11826147059
13138.400094318402,8908.421863129362,-36179.51705211605,-46144.32706169213,-41294.93728815762,-50223.83334920804,-31681.11672176322,-52780.850563150714
13058.470256146224,8888.864086730968,-36197.465502913656,-46130.44662838538,-41481.01556074805,-50229.868320210975,-31851.10173834583,-52829.309145129824
12988.95633089022,9047.002678752266,-35994.109331859276,-45896.64738138287,-41433.96513866963,-50017.75026533011,-31795.334135929843,-52647.32124177471
13035.29149714607,9064.884074316511,-35964.20269777807,-45898.59198315048,-41257.65457840617,-50004.80860529049,-31632.233456639467,-52597.163927217
13107.800556159087,8907.013703228677,-36177.08071197042,-46125.216320182844,-41281.056854850875,-50217.12782587145,-31664.419968655107,-52772.178086302054
13071.367212696936,8875.385984824417,-36232.89301787532,-46161.76142236727,-41454.86401973534,-50259.931416503365,-31828.12414504578,-52843.68131681458
13011.308075345527,9041.481797871804,-36006.402791309694,-45929.50444573217,-41442.34704284037,-50043.09714354243,-31807.20291223561,-52670.92468391952
13029.636505798879,9091.303836262685,-35944.957845802055,-45871.54637235956,-41273.27844778042,-49972.17505838574,-31638.961331720515,-52567.704328024905
13118.97642838674,8960.76964864369,-36134.21006610514,-46079.9763894053,-41254.59238941579,-50167.46224969176,-31631.004110694423,-52719.47267287644
13119.937553398318,8898.14006067992,-36237.676291188756,-46180.939219109925,-41443.531685296504,-50283.15487899243,-31813.327290216363,-52862.61324436823
13054.737514822187,9052.992946266288,-36051.776832553966,-45967.994149684215,-41477.52868861302,-50086.48187953018,-31835.857848627315,-52711.358989639164
13065.91338704984,9149.038392190741,-35929.44573515007,-45844.523113313095,-41307.54367203041,-49957.6911279787,-31668.21976521251,-52563.4574965784
13170.251330167215,9049.237853197796,-36082.93516432466,-46021.90655731041,-41237.44860141857,-50123.20579567025,-31613.50269478592,-52683.195791625476
13164.573987075566,8931.891194807435,-36245.8570296594,-46178.32406500865,-41409.10999883533,-50282.372567936494,-31778.413865377173,-52846.69880231605
13091.68494840681,9044.387524650994,-36097.46379822061,-46021.68303986586,-41491.610287619864,-50139.544920867076,-31849.31359878941,-52749.133437768636
13092.847239118486,9188.332758943172,-35928.90929328314,-45853.128534928386,-41332.9576054761,-49971.37039558535,-31691.376172468208,-52575.259217650804
13174.341699402536,9096.489440976315,-36058.907039035206,-46007.28851643664,-41233.045307760876,-50098.28360060258,-31606.48424702695,-52658.51946574682
13215.021874311195,8971.431430748873,-36240.26909354557,-46184.202573800394,-41372.766062351,-50279.39978592394,-31748.57428652934,-52836.03702021087
13147.497254311713,9058.51382714675,-36134.09830738286,-46057.35642401653,-41488.52574688503,-50172.60315091648,-31850.54294473445,-52780.53763872834
13127.581850002034,9220.385160492082,-35942.923837056616,-45857.88945649737,-41369.88268731626,-49978.70176776669,-31729.955283398067,-52598.92971502897
13212.205554509826,9176.687500081956,-36022.205474639595,-45949.866884930954,-41232.39710717167,-50058.519847216594,-31612.45216279652,-52631.36209623362
13272.085877905594,9039.760713548745,-36203.09814251639,-46152.50780016277,-41333.02466070946,-50257.204503679815,-31717.46065824755,-52812.50063329943
13206.662321884909,9078.675100645436,-36163.80377576396,-46085.63138075249,-41494.38190393233,-50207.69538971131,-31860.891802417256,-52809.371389075684
13166.65269930991,9248.369544550127,-35951.35044471627,-45856.280130896586,-41401.175129553696,-49992.04575920651,-31765.47220533755,-52615.313543714714
13229.774025651697,9228.409436751537,-35985.34744803279,-45904.24697449768,-41248.17743875712,-50029.99902129162,-31624.052718168823,-52606.52930814378
13296.359872384057,9073.020109298242,-36189.30711618747,-46126.51272136125,-41310.762323231975,-50246.430962852355,-31694.393657969675,-52796.69794996953
13270.543607538177,9101.205659056384,-36173.21386017965,-46092.292200600175,-41462.57537157242,-50223.07338989656,-31837.0648428279,-52820.92724095908
13216.161813278415,9273.761126251356,-35949.74111911549,-45863.343282144466,-41408.88648139078,-49999.46653836567,-31774.23408916403,-52628.21050026542
13246.068447359616,9281.047794943786,-35941.1356975002,-45866.38311939038,-41252.51367718144,-49992.62690456235,-31622.73396524596,-52576.55561882921
13323.204317474881,9132.654563505002,-36154.55015355947,-46093.052159911655,-41277.435872249116,-50206.13076759944,-31656.529802862384,-52752.37444071465
13301.76899454224,9099.529278222237,-36202.4946454161,-46133.19589295339,-41450.0807464219,-50253.292948400136,-31823.877313599267,-52835.74644753295
13232.433883241878,9253.35398356366,-36006.78277096543,-45917.12157930393,-41451.51125806705,-50052.73074540267,-31816.63534839575,-52678.83720145669
13258.585424254588,9310.50739413588,-35923.410764147135,-45850.28986338257,-41281.25802055097,-49983.68620678022,-31653.244096427454,-52580.44482236443
13345.801931119197,9174.072345980687,-36119.592025231366,-46056.46235423832,-41253.07247079283,-50175.39711897339,-31640.660064299118,-52725.194719457
13338.627021149043,9103.686702690924,-36222.83473287043,-46149.64677687249,-41429.02540314501,-50272.40368990943,-31804.833627323347,-52842.89900575865
