Fp1,Fp2,C3,C4,P7,P8,O1,O2
13954.171711703744,6465.6220633533085,-31786.90752827019,-39067.85417411973,-35986.8450149113,-43395.37541811173,-31561.1996127605,-44195.97020101192
14031.620506241383,6464.0350894969815,-31801.81614182188,-39103.84048269278,-35776.8950792426,-43416.31900266636,-31464.46126275793,-44163.94015120747
14120.781614873602,6355.047983532904,-31939.413480688752,-39254.044205432445,-35753.962189431455,-43561.068899758924,-31540.77011832835,-44277.59877176271
14062.68943103426,6350.667041619664,-31950.164669771755,-39232.72064122208,-35969.276543769425,-43554.81041131144,-31652.059453971324,-44336.49561840244
13965.660508353772,6454.356784147833,-31818.177618763166,-39083.41098826063,-36017.578663537344,-43412.049819475396,-31593.83315966525,-44237.723259654435
14004.887819872836,6460.995252251059,-31788.785074804437,-39085.08736909478,-35814.98245179444,-43401.768017025955,-31479.839262943184,-44172.50086933385
14122.368588729929,6376.371547743267,-31907.942224495677,-39225.09869636282,-35732.86214266565,-43529.217663910116,-31519.62536807363,-44257.54925698629
14085.085878978478,6339.759390325474,-31958.41246347576,-39256.972283956085,-35930.51861888392,-43562.34294919288,-31643.006997466924,-44335.84741781324
13965.705211842682,6425.254812867023,-31833.846191626337,-39126.035764936896,-36037.49406784702,-43434.78154358644,-31621.25875011191,-44263.09248961121
13980.591473649916,6464.2139034526235,-31782.48188286804,-39086.20495631754,-35855.260295302905,-43387.93228720812,-31500.559330053253,-44178.580543825694
14106.498850166661,6387.145088570725,-31893.50299757755,-39212.49231249002,-35720.07694483721,-43505.502463043034,-31501.22988238691,-44238.773791643835
14095.926475039301,6336.853663546284,-31970.102425825888,-39276.127728954285,-35892.00656318743,-43572.31182721994,-31630.15474440512,-44326.213815953
13974.422392180251,6409.139205114747,-31859.707159961126,-39152.097898971784,-36039.08104170335,-43457.24504676402,-31635.027424696378,-44272.07789088225
13952.316516913954,6460.347051661855,-31789.925013771655,-39088.708351696536,-35903.18243541508,-43387.574659296835,-31521.458211118963,-44182.31328514973
14077.665099819316,6398.991513132038,-31881.187186382675,-39203.79748389691,-35733.37623278812,-43492.06906462539,-31498.95000445247,-44229.16254152806
14112.869097336425,6341.838102559817,-31969.029542092034,-39294.05382800744,-35847.03485334335,-43576.26808598854,-31612.519218029884,-44330.19242646604
14005.491316973128,6406.658161480208,-31880.36017183783,-39172.28152421493,-36020.93142520564,-43472.086605082346,-31641.397671866143,-44291.38979809163
13961.748953074093,6472.305234945445,-31776.178690931643,-39075.9231538681,-35926.20473220405,-43372.464880045045,-31529.124859467134,-44179.20639267044
14062.108285678421,6424.740722744552,-31852.59930522434,-39170.2475154695,-35739.52296251333,-43456.46273570809,-31485.89658569057,-44193.824433544214
14125.60959167595,6350.8682073197615,-31961.72052165515,-39283.03441799097,-35807.74048659092,-43567.26033297305,-31591.642688708627,-44302.543318574826
14033.29688707553,6396.823393919873,-31901.84019825938,-39194.7003239036,-36006.42514305415,-43491.68908496965,-31646.98560797997,-44296.39658884962
13958.954985017179,6473.0204907680145,-31782.772455545957,-39075.20789804553,-35959.59823842028,-43373.5377637789,-31546.827441075737,-44186.135433451585
14050.865358217403,6439.604632807331,-31816.791810606937,-39139.26799765444,-35753.38104407561,-43433.59690113031,-31479.10165537616,-44183.16265143903
14135.779635403114,6351.4493526756,-31946.23076274762,-39271.59032482986,-35776.403340864585,-43566.16509749473,-31573.29190651082,-44298.52000457287
14059.157855410322,6372.504695952499,-31914.915968765734,-39225.165751596185,-35980.13949157471,-43527.40717260924,-31655.300456917343,-44323.39749615163
13967.71686884366,6469.310101188434,-31780.961964245078,-39079.20886030303,-35986.15211083319,-43391.2403453875,-31576.44350247902,-44215.46092217695
14020.824613669469,6454.46854287011,-31807.024098279966,-39115.15046538717,-35787.53450960333,-43419.80587480139,-31489.674030503516,-44181.106290949145
14126.101330053965,6366.134448782736,-31940.352253955873,-39255.027682188476,-35753.202230119976,-43548.39546065277,-31551.163679500067,-44270.55797225928
14070.490189849163,6356.8584748337835,-31949.7399866271,-39246.24344661754,-35963.53214544441,-43548.216646697125,-31658.69792207455,-44324.269214185384
13959.804351306482,6447.22657766659,-31807.33702270234,-39101.40414254715,-36020.30557636089,-43413.52503460945,-31604.383183048154,-44236.695079409496
13992.281436000043,6455.94375800416,-31798.77630457596,-39109.8307502068,-35829.7569548794,-43413.748552054,-31503.353298110163,-44191.76807305433
14104.666007121326,6367.050870305404,-31924.057832247956,-39249.75267049702,-35742.24987533687,-43541.73464080509,-31537.171487471045,-44258.778602931336
14081.621358587905,6345.950823539594,-31962.882812366825,-39258.40279560123,-35932.19499971807,-43566.85800157285,-31653.109985960724,-44320.648231583626
13975.830552080937,6446.801894521939,-31826.24659851153,-39109.76369497344,-36028.978053209554,-43430.11002899528,-31618.800058221826,-44243.51236146836
13985.352395218897,6488.733767120096,-31769.204946661586,-39068.3235607533,-35853.27099004638,-43382.29964760538,-31503.75562951036,-44171.89737223356
14104.710710610238,6405.518222512987,-31889.41262834223,-39203.66337343018,-35726.38013677361,-43506.03890490996,-31513.925673237525,-44233.56583518575
14117.36179797194,6362.6699283921635,-31952.913934339755,-39262.31435088091,-35882.23885086046,-43566.92505680622,-31633.619264795696,-44322.70459207351
13999.143421547822,6437.838844995362,-31842.406909752717,-39137.278692397915,-36031.83907649983,-43449.93602632714,-31639.944808476546,-44268.635722236126
13972.366031690364,6488.063214786436,-31765.561612315374,-39070.20110728754,-35900.38846735817,-43379.05864465936,-31530.153039712077,-44179.69813104846
14084.437678389273,6415.911783684705,-31867.239697842564,-39193.26981225846,-35730.42580252002,-43488.20221283462,-31505.700231277973,-44223.686364136505
14114.858402592947,6336.20546295708,-31965.47561472364,-39289.09174073836,-35850.007635355905,-43581.40898721325,-31625.68439551406,-44322.14579846213
14006.988883851634,6401.159632344203,-31878.817901470415,-39174.71786436056,-36041.31621614888,-43483.44129126565,-31667.772730323402,-44281.95736193149
13962.352450174387,6482.18470599469,-31769.406112361685,-39053.66081639061,-35937.71588059853,-43370.81085095535,-31546.67097886455,-44168.030520442786
14067.584463069972,6431.580356547875,-31843.770366164492,-39152.254361182975,-35744.663863738046,-43457.93795084214,-31501.341641109186,-44193.37739865511
14133.70092316877,6353.013974787471,-31958.501870453583,-39267.321141638895,-35806.91347204608,-43570.88131557481,-31604.45023828152,-44297.782397005845
14036.91786967729,6387.413309504189,-31903.13659943779,-39185.62551565475,-36011.83426521233,-43505.569518276396,-31668.487986145974,-44296.01660919388
13961.48073214063,6471.835848311884,-31776.58102233184,-39061.64038916116,-35979.96067761906,-43382.21024062756,-31577.35992400169,-44192.59508759917
14044.83038721447,6441.75040027504,-31824.458458955105,-39121.006622434455,-35771.48595708441,-43437.39669768771,-31505.05203068877,-44184.86138401763
14126.213088776243,6347.001355528993,-31947.437756948206,-39262.493164836545,-35783.242974667904,-43568.9367138072,-31595.129560843656,-44297.29065862783
14059.157855410322,6371.990605830027,-31924.013128759045,-39214.503969491,-35995.20456733758,-43531.18461742218,-31682.211957241532,-44317.94367050454
13978.982148049136,6476.172086736213,-31779.19617643311,-39074.33618001177,-36001.32894531834,-43394.50370007798,-31599.756371945903,-44210.63294537461
14039.510672034106,6475.859162313839,-31785.611127091783,-39092.463444765024,-35786.48397761393,-43409.725238052044,-31495.887815462094,-44165.661235530526
14132.963315601744,6379.590198944831,-31920.056869990454,-39228.09383011983,-35743.322759070725,-43539.90179775975,-31551.320141711254,-44262.623102977646
14070.445486360251,6356.0314602889375,-31940.151088255774,-39227.19976034162,-35950.29991272687,-43543.65689082824,-31657.26741042941,-44318.52481586037
13963.179464719233,6457.150752204747,-31805.414772679185,-39075.006732345435,-36010.537864033926,-43401.79036877041,-31604.852569681716,-44223.08286703621
13998.159944791789,6476.99910128106,-31782.973621246056,-39066.960104341524,-35823.6549286431,-43386.34531335179,-31495.843111973183,-44156.16174413702
14118.32292298352,6398.142146842736,-31911.429096630705,-39207.23965254303,-35735.276131066814,-43519.15937890523,-31530.95770251247,-44235.286919508806
14105.448318177263,6378.584370444342,-31937.759451599057,-39214.95100438011,-35904.9258714826,-43537.48780935858,-31630.82529673878,-44292.01564693638
13983.00546205109,6454.692060314663,-31819.652833897217,-39080.661723692625,-36021.49021881702,-43413.703848565085,-31614.53087503086,-44225.85448334867
13975.67408986975,6487.7502903640625,-31776.625725820748,-39050.48686867796,-35866.927905908575,-43373.91774343464,-31507.197798156478,-44152.04902315725
14088.304530180041,6402.187812589146,-31896.028744701,-39187.39130346671,-35733.35388104366,-43504.07195139789,-31516.27260640533,-44218.143131511584
14095.188867472276,6346.196692728602,-31963.978047845132,-39250.57968504187,-35881.09891189324,-43567.84147832888,-31632.83695373976,-44305.337286631744
13980.0997352719,6418.214013363602,-31856.801433181936,-39136.69754704208,-36037.874047502766,-43456.66390140819,-31643.051700955835,-44257.75042268639
13945.94626974419,6464.906807530739,-31793.836569051335,-39062.489755450464,-35918.69454606707,-43381.204412127074,-31534.82455430324,-44168.857534987634
14066.377468869385,6405.652332979719,-31870.83832869987,-39170.22516372504,-35740.97582590292,-43474.34413127234,-31502.99567019888,-44195.63492484509
14109.516335668128,6341.7710473264515,-31966.213222290662,-39259.02864444598,-35842.43039398556,-43568.489678918086,-31614.799095964325,-44292.17210914756
13999.81397388148,6396.912800897694,-31888.831482986392,-39159.76454731996,-36037.2034951691,-43486.972866889584,-31664.665837844117,-44281.5997340202
13940.671258052738,6467.074926742903,-31792.026077750455,-39058.89112459316,-35958.90533434216,-43384.11013890626,-31559.366769715165,-44172.12088967811
14034.079198131467,6414.4142168062,-31872.201785111643,-39154.198962950584,-35768.55787856077,-43464.41995673418,-31510.394097613585,-44184.97314273991
14117.60766716095,6347.224872973547,-31964.335675756418,-39265.220077660095,-35815.56359715028,-43574.85992608785,-31601.745677202427,-44293.647324281614
14024.78087243806,6378.78553614444,-31914.804210043458,-39186.0501987994,-36022.22782638405,-43513.61614628031,-31665.51520413342,-44294.74255975993
13943.979316232124,6460.794086550962,-31795.24472895202,-39064.523764195896,-35995.11516035976,-43390.3909790982,-31575.951764101002,-44181.039235715776
14032.91690741979,6443.22561540909,-31822.312691487397,-39112.55766303035,-35780.98544847792,-43425.97495627105,-31491.059838659745,-44157.547552293254
14121.385111973896,6355.807942844384,-31949.628227904825,-39252.18901064265,-35781.588945578216,-43559.548981135966,-31573.694237911015,-44268.65807398058
14052.318221606998,6376.773879143462,-31925.80126831547,-39208.91603337718,-35989.12489284574,-43533.464495356624,-31663.615305854717,-44304.778493020356
13959.312612928465,6473.355766934845,-31789.410923649186,-39060.656912405124,-36010.02377391145,-43392.0897116768,-31587.038229350834,-44196.976029512414
14025.227907327166,6477.04380476997,-31782.124254956754,-39075.25260153444,-35790.93197476053,-43397.409426857164,-31478.766379209326,-44144.337671320165
14132.091597567987,6380.59602744532,-31914.625396087817,-39220.87421666077,-35740.260570080354,-43544.528608862,-31542.133574740124,-44264.97003614545
14078.447410875251,6357.506675422987,-31939.301721966473,-39229.52434176497,-35947.23772373649,-43550.40711765375,-31651.478308615486,-44315.41792338109
13957.18919720521,6443.538539831465,-31815.495409428528,-39084.72974118349,-36030.83324799934,-43410.30638340788,-31609.926415673068,-44205.73791333889
13998.96460759218,6473.445173912665,-31779.710266555583,-39057.90764783712,-35834.31671074828,-43382.21024062756,-31494.211434627945,-44136.00047063833
14121.251001507164,6387.323902526367,-31901.907253492744,-39201.09292281782,-35729.68819495299,-43515.985431192574,-31522.374632641633,-44217.9866693004
14094.093631993966,6347.291928206912,-31951.773995372536,-39244.56706578339,-35919.05217397835,-43570.76955685253,-31651.254791170933,-44317.787208293346
13993.264912756076,6444.522016587498,-31815.562464661893,-39091.23409881999,-36029.00040495401,-43428.97009002806,-31618.911816944103,-44235.93512009801
13987.632273153338,6483.078775772903,-31764.555783814885,-39043.758993596915,-35871.755882710924,-43373.76128122345,-31504.739106266396,-44142.32601431919
14098.765146585125,6398.253905565012,-31883.802340483948,-39176.95303880609,-35738.517134012836,-43499.55689901792,-31515.33383313821,-44207.74957033987
14122.457995707751,6356.433791689133,-31947.013073803555,-39236.274568590474,-35875.13099612368,-43563.19231548218,-31626.377299592175,-44288.99816143491
14018.276514801564,6439.93990897416,-31828.280607256966,-39103.236985592484,-36020.41733508317,-43439.587168644335,-31627.137258903655,-44228.715506638946
13986.782906864037,6500.356674236856,-31748.775452229438,-39030.191484712544,-35902.71304878152,-43358.85266767177,-31516.831400016716,-44137.92272066149
14098.563980885028,6437.3694583618,-31842.339854519352,-39133.6353580517,-35725.48606699539,-43452.21590426158,-31483.79552171177,-44158.68749126047
14143.915670384846,6370.470687207066,-31940.732233611612,-39230.01608014299,-35826.47124844447,-43554.653949100255,-31595.06250561029,-44267.09345186871
14033.341590564442,6421.276202353979,-31870.59245951086,-39131.98132896201,-36015.83522746983,-43474.679407439166,-31640.59300906575,-44252.65422495058
13959.200854206189,6481.402394938755,-31772.535356585428,-39039.60156912822,-35949.40584294866,-43375.6388277577,-31546.0451300198,-44154.261845858324
14055.648631530838,6428.7640367465065,-31837.95891260611,-39130.77433476142,-35753.02341616433,-43453.40054671771,-31492.64681251607,-44170.28804663278
14132.024542334622,6354.310375965879,-31954.456204707174,-39247.048109417934,-35796.60931785218,-43564.42166142722,-31584.95951711649,-44276.257667095386
14055.067486175,6400.444376521633,-31886.93158470769,-39164.86074505577,-35993.10350335878,-43487.91164015671,-31639.676587543083,-44253.23537030642
13978.892741071313,6493.7405578780845,-31748.797803973892,-39017.8086182843,-35962.81688962184,-43355.879885659204,-31542.37944392913,-44137.766258450305
14045.523291292584,6450.534635845976,-31803.716040100582,-39092.10581685374,-35764.62397153663,-43416.63192708873,-31475.950059407958,-44143.711822475416
14130.191699289287,6353.461009676577,-31949.449413949184,-39238.28622559145,-35774.995180963895,-43560.68892010319,-31565.513499440374,-44265.72999545694
14075.094649206954,6380.528972211954,-31919.073393234423,-39197.203719282596,-35971.77993914842,-43527.161303420224,-31647.365587635708,-44286.6512282671
13988.526342931551,6489.001988053559,-31761.873574480247,-39037.589912127245,-35986.26386955546,-43374.36477832375,-31565.91583084057,-44166.354139608644
14041.902308690824,6482.564685650431,-31766.61214430477,-39049.86101983321,-35780.20313742199,-43380.13152839321,-31463.790710424273,-44115.0121825948
14132.762149901648,6370.493038951521,-31919.54277986798,-39217.4543997591,-35736.349014800675,-43538.18071343669,-31531.807068801772,-44228.67080315004
14097.98283552919,6370.73890814053,-31927.03061426051,-39217.4543997591,-35928.90929328314,-43547.322576918916,-31633.798078751337,-44287.56764978977
13995.947122090713,6475.278016958001,-31786.9522317591,-39049.570447155296,-36000.99366915151,-43391.128586665225,-31580.913851370082,-44178.26761940332
14009.045244341523,6483.414051939732,-31762.074740180346,-39037.85813306071,-35820.860960586186,-43369.40269105467,-31476.08416987469,-44106.63027842406
14112.913800825334,6390.631960705753,-31901.88490174829,-39195.728504148545,-35725.12843908411,-43516.03013468148,-31512.293995892287,-44201.04404700328
14098.653387862849,6357.819599845362,-31954.880887851825,-39222.10356260581,-35902.28836563687,-43560.800678825464,-31629.059508926814,-44287.500594556404
13994.158982534289,6449.841731767861,-31814.936615817147,-39069.21763053151,-36016.08109665884,-43414.01677298746,-31605.16549410409,-44200.30643943625
13981.485543428129,6484.375176951311,-31762.544126813907,-39029.54328412334,-35868.42547278708,-43361.490173517486,-31492.870329960628,-44110.96651684839
14092.752527326647,6402.321923055879,-31883.556471294938,-39169.50990790247,-35733.331529299205,-43488.872765168286,-31501.788675998294,-44181.039235715776
14119.395806717373,6352.678698620642,-31954.56796342945,-39233.16767611119,-35869.49835652093,-43560.77832708101,-31615.134372131157,-44273.70956822748
14009.738148419638,6425.210109378113,-31843.792717908946,-39113.36232583074,-36022.11606766177,-43450.02543330496,-31627.02550018138,-44228.00025081638
13975.182351491732,6479.055461770948,-31759.61604829026,-39025.8105427993,-35912.301947152846,-43365.55819100836,-31518.61953957314,-44132.15597059202
14080.570826598505,6413.207222605613,-31848.218363311098,-39130.997852205976,-35730.06817460873,-43461.29071251043,-31484.66723974553,-44161.83908722867
14133.879737124413,6350.599986386298,-31939.45818417766,-39224.31638530688,-35817.016460539875,-43549.28953043098,-31586.099456083713,-44243.400602746085
14031.665209730294,6402.79130968944,-31867.954953665136,-39127.913311471144,-36012.14718963471,-43469.851430636816,-31635.988549707956,-44229.9895560729
13966.71104034317,6474.115726246325,-31754.72101625455,-39011.795999025824,-35941.247456222474,-43357.42215602662,-31530.2424466899,-44121.38242976456
14056.788570498058,6423.51137679951,-31830.269912513486,-39107.997907161465,-35755.280942354315,-43441.42001168967,-31485.918937435024,-44142.527180019286
14135.645524936383,6346.599024128798,-31941.402785945273,-39231.42424004367,-35795.40232365159,-43562.65587361525,-31583.171377560066,-44253.19066681751
14057.280308876076,6390.855478150306,-31887.959764952633,-39154.02014899494,-35992.276488813935,-43502.95436417513,-31649.332541147774,-44261.19259133251
13980.256197483088,6489.069043286925,-31755.793899988403,-39024.33532766525,-35968.851860624774,-43370.67674048862,-31555.16464175757,-44152.00431966833
14050.284212861565,6461.2187696956125,-31788.24863293751,-39077.55483121334,-35765.60744829267,-43407.80298802889,-31472.440835528476,-44121.94122337594
14149.861234409957,6375.119850053769,-31914.40187864326,-39210.39124851123,-35749.84946845168,-43530.35760287733,-31538.46788864945,-44211.996401786375
14086.538742368073,6380.953655356605,-31903.53893083798,-39164.36900667775,-35956.60310466327,-43511.582137534875,-31634.0662996848,-44251.96132087247
13970.130857244832,6458.402449894244,-31783.04067647942,-39031.35377542422,-36006.335736076326,-43384.51247030646,-31581.606755448196,-44160.766203494815
14028.468910273185,6474.115726246325,-31767.52856582744,-39039.9144935506,-35794.776474806844,-43381.427929571626,-31470.071550616212,-44106.652630168515
14137.545423215082,6385.424004247667,-31902.533102337493,-39185.08907378782,-35733.97972988841,-43518.33236436038,-31523.53692335331,-44201.60284061466
14099.234533218687,6371.007129073993,-31922.85083804737,-39191.682838402136,-35924.57305485881,-43530.268195899516,-31631.674663028083,-44260.83496342122
13986.648796397305,6466.538484875976,-31791.064952738878,-39045.32361570878,-36011.63309951223,-43397.409426857164,-31595.286023054843,-44179.58637232619
14004.217267539176,6482.251761228056,-31759.928972712634,-39029.11860097869,-35833.310882247795,-43371.973141667026,-31487.438856057986,-44117.895557629534
14110.36570195743,6383.054719335404,-31894.08414293339,-39184.5973354098,-35730.69402345348,-43513.28087011348,-31518.843057017693,-44202.295744692776
14104.84482107697,6349.638861374719,-31935.99366378709,-39215.5545014804,-35892.81122598782,-43550.11654497583,-31626.466706569998,-44265.46177452347
13985.844133596915,6426.372400089789,-31818.758764119004,-39083.321581282806,-36025.334718863334,-43423.78448531443,-31616.743697731938,-44189.19762244196
13967.627461865839,6460.9281970176935,-31757.962019200568,-39029.74444982343,-35880.09308339275,-43374.54359227939,-31509.209455157456,-44116.10741807311
14083.11892546641,6387.994454860027,-31870.45834904413,-39163.87726829974,-35730.69402345348,-43501.769721719,-31506.169617911535,-44182.11211944963
14115.864231093436,6342.553358382387,-31947.14718427029,-39233.50295227802,-35859.440071516045,-43568.064995773435,-31615.223779108976,-44270.35680655918
14008.553505963506,6414.056588894915,-31847.927790633177,-39110.34484032927,-36027.97222470906,-43455.05457580741,-31635.183886907565,-44221.3394309687
13979.652700382794,6488.309083975445,-31746.42851906163,-39002.38591461014,-35908.01041221743,-43351.633054212696,-31513.14336218159,-44107.97138309138
14083.297739422052,6425.500682056032,-31838.249485284032,-39111.0824478963,-35726.67070945152,-43448.63962514873,-31475.078341374203,-44139.26382532881
14134.930269113813,6353.505713165488,-31939.65934987776,-39223.60112948431,-35817.12821926215,-43559.16900148022,-31589.474569496462,-44251.156658072076
14040.941183679246,6405.920553913183,-31862.992866396056,-39127.33216611531,-36007.63213725473,-43476.26638129549,-31635.966197963502,-44238.5949776882
13968.253310710588,6475.255665213545,-31752.307027853374,-39008.73381003545,-35949.696415626575,-43362.65246422916,-31536.61269385966,-44128.914967646
14051.334744850963,6431.982687948071,-31814.266063483487,-39084.506223738936,-35748.75423297337,-43433.39573543021,-31474.76541695183,-44125.942185633445
14129.588202188994,6345.190864228113,-31934.071413763933,-39214.48161774655,-35782.3936083786,-43561.51593464803,-31568.799205875304,-44238.41616373255
14054.77691349708,6376.550361698909,-31887.959764952633,-39149.14746870369,-35989.907203901676,-43508.13996888876,-31641.352968377232,-44251.98367261692
13969.1473804888,6464.638586597274,-31762.76764425846,-39020.267310174386,-35983.93928813211,-43378.25398185897,-31557.936258070025,-44140.02378464029
14044.316297091997,6454.155618447736,-31783.57711834635,-39054.040796046356,-35774.34698037469,-43405.947793239095,-31467.277582559298,-44107.904327858014
14148.475426253728,6366.648538905209,-31911.160875697242,-39197.963678594075,-35751.369387074636,-43540.12531520431,-31538.400833416086,-44208.53188139581
14093.244265704665,6374.896332609217,-31902.019012215023,-39170.158108491676,-35959.553534931365,-43526.557806319935,-31638.22372415349,-44252.52011448385
13984.212456251676,6460.525865617498,-31770.34488562881,-39024.022403242874,-36009.688497744624,-43393.49787157749,-31579.81861589177,-44158.374566838094
14027.597192239427,6461.0399557399705,-31765.449853593094,-39035.01946151489,-35810.24388196992,-43388.51343256395,-31473.960754151438,-44105.87031911258
14134.729103413714,6366.134448782736,-31902.846026759868,-39184.37381796525,-35741.69108172549,-43526.2225301531,-31523.71573730895,-44197.26660219033
14100.910914052834,6347.627204373742,-31931.70212885167,-39200.44472222862,-35939.52637189941,-43547.90372227475,-31640.03421545437,-44263.33835880022
13979.42918293824,6432.787350748462,-31800.653851110204,-39058.220572259495,-36031.86142824429,-43415.112008465774,-31607.98181390546,-44181.88860200508
13999.903380859303,6465.711470331129,-31753.804594731882,-39022.81540904229,-35847.6607021881,-43370.5873335108,-31489.89754794807,-44098.69540914243
14125.430777720307,6391.481326995055,-31869.944258921656,-39152.05319548288,-35724.21201756144,-43492.87372742579,-31504.42618184402,-44168.32109312071
14121.072187551521,6354.9138730661725,-31932.864419563346,-39202.56813795187,-35890.911327709124,-43555.078632244906,-31628.411308337607,-44262.399585533094
13992.52730518905,6424.6513157667305,-31832.572142192384,-39074.40323524514,-36043.01494872748,-43446.44915419211,-31636.3685293637,-44212.018753530836
13979.00449979359,6478.161391992735,-31757.291466866907,-39001.40243785411,-35892.87828122119,-43376.33173183582,-31515.91497849405,-44121.42713325348
14095.41238491683,6405.250001579524,-31864.557488507926,-39131.10961092825,-35731.856314165154,-43476.288733039946,-31500.380516097608,-44150.8196772122
14133.276240024119,6356.478495178044,-31945.69432088069,-39208.55840546589,-35856.13201333666,-43551.345890920864,-31608.92058717258,-44240.36076550016
14027.485433517151,6424.472501811088,-31839.00944459551,-39083.00865686043,-36019.38915483822,-43444.45984893559,-31624.678567013572,-44200.2840876918
13981.642005639316,6488.554953164453,-31732.90571366617,-38986.80674872479,-35910.893787252164,-43345.262807042935,-31504.649699288573,-44092.615734650586
14067.316242136509,6408.558059758909,-31837.131898061267,-39124.64995678067,-35740.08175612471,-43459.256703765,-31483.23672810039,-44141.946034663444
14118.859364850447,6327.465930875055,-31946.74485287009,-39237.43685930215,-35825.688937388535,-43568.89201031828,-31595.666002710583,-44250.26258829387
14037.20844235521,6392.241286306535,-31861.96468615111,-39120.291366611884,-36004.726410475545,-43471.863087637794,-31627.807811237315,-44220.75828561286
13967.113371743366,6478.85429607085,-31746.9426091841,-39010.43254261405,-35946.902447569664,-43357.69037696009,-31523.380461142122,-44117.38146750706
14052.184111140265,6438.46469384011,-31805.9065110572,-39095.279764566396,-35749.98357891841,-43425.237348704024,-31460.281486544787,-44125.40574376652
14130.683437667303,6355.249149233002,-31933.713785852648,-39231.49129527704,-35782.1477391896,-43556.41973691222,-31556.43869119152,-44242.93121611252
14052.251166373631,6379.16551580018,-31891.938375465677,-39164.480765400025,-35982.01703810895,-43503.51315778651,-31626.89138971465,-44258.80095467579
13957.658583838771,6458.178932449691,-31767.886193738723,-39034.75124058143,-35982.68759044261,-43373.87303994573,-31541.86535380666,-44154.887694703066
14021.830442169958,6440.118722929803,-31791.377877161252,-39077.84540389125,-35776.58215482022,-43401.92447923714,-31454.291219030765,-44128.49028450135
14126.168385287332,6355.919701566661,-31914.915968765734,-39208.40194325471,-35747.50253528387,-43528.39064936527,-31519.62536807363,-44227.32969848272
14069.93139623778,6356.232625989035,-31915.139486210286,-39187.748931378,-35950.903409827166,-43510.71041950112,-31611.62514825167,-44263.09248961121
13964.43116240873,6447.695964300152,-31781.923089256656,-39043.22255172999,-36003.47471278605,-43373.87303994573,-31554.941124313013,-44166.175325653
14008.48645073014,6463.431592396688,-31767.997952461003,-39045.94946455353,-35802.30901268828,-43363.01009214045,-31447.2727712718,-44114.22987153887
14126.235440520697,6375.343367498323,-31892.988907455077,-39194.20858552559,-35723.764982672335,-43503.28964034196,-31491.886853204593,-44218.99249780089
14108.55521065655,6358.199579501103,-31918.26873043403,-39207.21730079858,-35906.93752848358,-43518.17590214919,-31596.984755633446,-44280.50449854189
13991.141497032822,6439.917557229705,-31797.211682464087,-39068.25650551993,-36008.99559366651,-43383.663104017156,-31569.179185531044,-44190.31520966473
13994.270741256565,6461.956377262638,-31760.934801213123,-39047.75995585441,-35843.12329806367,-43348.72732743351,-31459.499175488854,-44110.89946161502
14111.796213602569,6382.45122223511,-31877.052113658443,-39188.44183545611,-35716.52301746881,-43475.34995977282,-31474.430140784996,-44186.47070961842
14112.377358958407,6340.8322740593285,-31944.71084412466,-39243.85180996082,-35873.40991180061,-43528.45770459863,-31587.529967728853,-44266.93698965752
13989.688633643227,6410.525013270976,-31835.455517227118,-39104.98042166,-36028.1063351758,-43412.47450262005,-31594.280194554354,-44212.644602375585
13978.62452013785,6474.585112879886,-31750.63064701923,-39028.49275213394,-35876.13682462416,-43332.16468479213,-31466.338809292178,-44114.22987153887
14086.874018534902,6398.4103677762,-31848.285418544463,-39155.71888157355,-35709.50456970985,-43444.72806986905,-31452.279562029787,-44165.63888378607
14128.381207988406,6338.910024036172,-31928.8858090503,-39241.594283770835,-35826.62771065566,-43525.931957475186,-31566.63108666314,-44264.70181521199
14019.550564235517,6404.691207968141,-31840.149383562733,-39119.956090445055,-36002.80416045239,-43422.108104480285,-31596.11303759969,-44229.29665199479
13976.501104414596,6480.731842605096,-31728.770640941937,-39010.63370831415,-35901.05901969183,-43314.506806672434,-31480.3310013212,-44116.35328726212
14087.186942957276,6431.446246081144,-31797.077571997354,-39099.77246520191,-35704.050744062755,-43398.16938616865,-31431.715957130906,-44132.17832233648
14144.653277951871,6342.307489193379,-31910.959709997143,-39224.00346088451,-35775.419864108546,-43516.81244573742,-31539.451365405486,-44247.98271035942
14038.907174933813,6380.394861745222,-31862.769348951504,-39158.44579439709,-35987.91789864515,-43459.81549737639,-31611.423982551576,-44266.266437323866
13971.404906678785,6472.573455878909,-31742.874591693235,-39031.57729286877,-35938.56524688783,-43332.79053363688,-31508.941234223992,-44146.03640389877
14055.648631530838,6435.871891483294,-31795.02121150747,-39103.34874431476,-35738.62889273511,-43387.552307552374,-31441.66248341352,-44126.45627575592
14147.044914608588,6354.6233003882535,-31916.435887388696,-39232.43006854416,-35756.91261969956,-43513.750256747044,-31531.650606590585,-44239.17612304403
14064.410515357318,6369.800134873407,-31889.390276597773,-39189.17944302314,-35961.520488443435,-43479.30621854141,-31615.715517486995,-44261.59492273271
13963.358278674876,6455.809647537429,-31763.70641752558,-39046.95529305402,-35976.71967467304,-43352.41536526864,-31545.48633640842,-44162.39788084005
14028.938296906746,6443.270318898001,-31780.80550203389,-39077.4207207466,-35774.168166419055,-43376.84582195828,-31456.191117309467,-44129.69727870194
14126.905992854357,6343.045096760404,-31910.222102430118,-39227.892664419735,-35737.466602023436,-43515.76191374802,-31523.00048148638,-44229.94485258399
14071.428963116285,6345.168512483659,-31917.352308911362,-39209.69834443311,-35948.221200492524,-43513.45968406912,-31627.49488681494,-44285.28777185533
13968.588586877417,6443.7844090204735,-31781.67722006765,-39051.96208381201,-36003.74293371951,-43363.34536830728,-31565.178223273546,-44179.161689181536
13998.428165725252,6447.852426511339,-31765.67337103765,-39058.645255404146,-35807.092286001716,-43356.84101067079,-31457.956905121435,-44123.81876991019
14110.902143824356,6356.903178322695,-31895.35819236734,-39201.29408851792,-35720.83690414869,-43493.65603848172,-31495.172559639523,-44206.74374183938
14096.060585506033,6341.435771159622,-31923.052003747467,-39219.354298037804,-35902.243662147965,-43521.05927718393,-31606.238377837944,-44283.298466598804
13965.52639788704,6419.219841864091,-31820.30103448642,-39098.25254657895,-36023.92655896265,-43405.76897928345,-31596.314203299786,-44220.71358212395
13972.567197390461,6453.105086458336,-31762.991161703012,-39062.288589750366,-35858.36718778219,-43356.61749322623,-31481.672105988517,-44131.70893570292
14097.871076806912,6385.938094370138,-31872.671171745205,-39177.623591139745,-35726.894226896075,-43470.477279481565,-31486.65654500205,-44182.581506083196
14110.186888001786,6340.96638452606,-31933.7361375971,-39233.59235925584,-35881.07656014879,-43527.9212627317,-31605.187845848544,-44271.988483904424
14012.196840309722,6434.0390484379595,-31796.518778385973,-39083.99213361646,-36003.72058197505,-43390.61449654275,-31589.362810774186,-44195.27729693381
13994.29309300102,6494.053482300459,-31710.777486655414,-39006.073952445266,-35863.39633028464,-43306.70604785753,-31461.197908067457,-44085.597286891614
14092.104326737444,6407.574583002875,-31834.516743959994,-39150.8909047712,-35714.7795814013,-43437.15082849871,-31460.66146620053,-44150.8196772122
14134.84086213599,6345.190864228113,-31919.475724634616,-39224.875178918264,-35830.27104500187,-43526.982489464586,-31580.936203114536,-44262.46664076646
14033.051017886522,6417.096426140836,-31820.882179842258,-39111.37302057422,-36002.73710521902,-43424.36563067027,-31607.57948250526,-44227.732029882915
13975.204703236188,6477.692005359174,-31727.89892290818,-39018.25565317341,-35917.599310588754,-43327.448466712056,-31499.575853297218,-44121.605947209115
14075.921663751802,6424.137225644258,-31802.933729044646,-39117.47504681052,-35726.44719200697,-43414.44145613211,-31454.55943996423,-44141.76722070781
14150.487083254706,6359.183056257136,-31910.847951274867,-39215.21922531357,-35784.82994852423,-43514.35375384733,-31547.855621320683,-44237.27622476533
14062.39885835634,6404.043007378938,-31842.63042719727,-39125.29815736987,-35974.953886861076,-43444.1022210243,-31604.69610747053,-44227.664974649546
13978.71392711567,6482.698796117163,-31728.345957797286,-39003.279984388355,-35938.364081187734,-43325.9285480891,-31512.94219648149,-44122.947051876436
14046.819692470992,6437.414161850711,-31786.86282478128,-39085.914383639625,-35746.36259631665,-43394.615458800254,-31458.31453303272,-44129.60787172412
14129.007056833156,6342.218082215558,-31916.480590877607,-39227.57973999736,-35764.42280583654,-43524.63555629677,-31549.464946921464,-44235.71160265346
14053.480512318672,6358.244282990013,-31888.16093065273,-39176.97539055054,-35969.16478504715,-43488.090454112345,-31628.523067059883,-44258.063347108764
13969.303842699986,6458.201284194146,-31748.551934784882,-39029.85620854571,-35970.751758903476,-43354.15880133615,-31545.084005008222,-44156.76524123731
14033.92273592028,6454.379135892289,-31758.364350600765,-39053.66081639061,-35771.642419295604,-43368.32980732081,-31454.0229980973,-44111.97234534888
14129.409388233351,6348.342460196312,-31902.398991870763,-39208.33488802134,-35740.886418925096,-43510.44219856765,-31526.28618792131,-44206.766093583836
14085.354099911941,6350.890559064217,-31904.61181457184,-39192.152225035694,-35940.80042133336,-43507.96115493312,-31626.131430403166,-44258.59978897569
13987.788735364526,6455.407316137233,-31762.745292514002,-39032.94074928055,-35990.77892193543,-43354.24820831397,-31559.791452859816,-44150.05971790072
14013.381482765852,6462.3363569183775,-31741.913466681657,-39030.817333557294,-35797.12340797465,-43346.738022176985,-31454.872364386603,-44096.01319980779
14122.726216641215,6367.49790519451,-31873.475834545596,-39176.26013472797,-35719.987537859386,-43498.10403562833,-31503.889739977094,-44201.379323170106
14102.207315231242,6342.3968961712,-31920.45920139065,-39206.97143160956,-35904.054153448844,-43522.17686440669,-31619.180037877566,-44267.18285884653
13981.798467850504,6424.248984366534,-31800.51974064347,-39069.3740927427,-36016.70694550359,-43384.44541507309,-31594.43665676554,-44174.199601912456
13990.314482487975,6467.164333720724,-31741.80170795938,-39022.54718810883,-35842.05041432982,-43337.238530783485,-31475.972411152416,-44094.627391651564
14101.961446042234,6379.701957667107,-31862.568183251406,-39162.06677699885,-35715.49483722387,-43471.661921937695,-31487.416504313533,-44174.244305401364
14122.480347452207,6342.77687582694,-31921.107401979854,-39218.23671081504,-35859.931809894064,-43531.74341103356,-31600.96336614649,-44260.879666910136
14004.664302428282,6415.0847691398585,-31816.233016995553,-39095.68209596659,-36011.27547160095,-43420.632889346234,-31611.982776162957,-44212.26462271984
13974.601206135894,6470.405336666744,-31745.71326323906,-39021.56371135279,-35890.687810264564,-43340.81480989633,-31503.37564985462,-44115.883900628556
14085.868190034413,6403.372455045278,-31846.16200282121,-39140.564398832845,-35718.28880528078,-43439.54246515542,-31475.905355919047,-44142.59423525265
14130.169347544832,6341.614585115264,-31930.89746605128,-39235.581664512356,-35818.71519311848,-43530.49171334407,-31585.272441538866,-44244.317024268756
14017.740072934637,6395.415234019189,-31857.851965171336,-39126.50515157046,-36009.12970413324,-43445.48802918053,-31630.378261849673,-44229.25194850587
13972.746011346104,6476.596769880864,-31739.745347469492,-39009.47141760247,-35926.45060139306,-43332.92464410361,-31515.66910930504,-44115.8615488841
14068.366774125907,6427.154711145725,-31820.569255419883,-39097.13495935619,-35736.84075317869,-43414.66497357666,-31467.65756221504,-44130.72545894688
14137.634830192905,6348.92360555215,-31933.065585263445,-39219.086077104344,-35793.34596316171,-43533.889178501275,-31571.302601254298,-44247.8933033816
14056.810922242514,6395.638751463742,-31855.505032003526,-39133.03186095141,-35985.10157884379,-43451.47829669456,-31622.01870942339,-44225.02746880382
13968.365069432864,6466.247912198057,-31745.71326323906,-39015.95342349451,-35954.658502895654,-43338.1773040506,-31530.10833622317,-44121.36007802011
14048.138445393855,6439.001135707037,-31785.499368369507,-39079.342970769765,-35751.59290451919,-43389.40750234217,-31456.816966154216,-44112.35232500462
14126.83893762099,6339.468817647555,-31918.22402694512,-39228.317347564385,-35761.91941045754,-43529.86586449932,-31547.319179453752,-44221.18296875751
14054.39693384134,6351.538759653421,-31896.855759245846,-39183.926783076146,-35972.47284322653,-43498.32755307288,-31640.1683259211,-44250.01671910485
13960.363144917865,6446.332507888378,-31764.980466959536,-39049.39163319965,-35994.95869814858,-43366.67577823112,-31568.419226219565,-44151.64669175705
14034.414474298297,6458.894188272261,-31754.542202298904,-39050.48686867796,-35774.65990479707,-43363.34536830728,-31452.726596918896,-44103.54573768923
14142.283993039608,6370.157762784692,-31888.36209635283,-39197.78486463844,-35727.78829667429,-43499.93687867366,-31507.935405723503,-44198.183023713
14095.814716317025,6356.769067855963,-31900.8790732478,-39192.66631515817,-35925.75769731494,-43500.09334088485,-31608.674717983573,-44237.56679744325
13980.256197483088,6444.343202631856,-31775.597545575805,-39043.893104063645,-36005.285204086926,-43369.58150501031,-31568.888612853127,-44150.84202895666
14014.052035099512,6470.9641302781265,-31740.61706550325,-39025.96700501049,-35813.46253317148,-43347.00624311045,-31461.488480745375,-44094.426225951465
14124.290838753086,6372.25882676349,-31871.21830835561,-39177.645942884206,-35714.55606395675,-43484.29065755495,-31496.044277673278,-44177.99939846986
14112.64557989187,6344.475608405543,-31915.363003654842,-39202.97046935207,-35896.83453998977,-43524.00970745202,-31614.240302352944,-44255.4481930075
14003.658473927793,6433.480254826576,-31782.593641590316,-39054.44312744655,-36014.38236408024,-43390.30157212038,-31594.123732343167,-44177.7758810253
14009.693444930726,6486.1633165077355,-31719.472315248528,-38999.4578360865,-35847.61599869919,-43326.397934722656,-31475.212451840933,-44089.12886251556
14117.048873549567,6399.103271854315,-31843.1668690642,-39140.89967499968,-35711.40446798855,-43457.535619441944,-31483.683762989494,-44157.055813915234
14135.89139412539,6351.225835231046,-31913.41840188723,-39203.52926296345,-35849.67235918908,-43520.90281497274,-31596.560072488795,-44245.45696323597
14029.653552729316,6423.623135521786,-31797.68106909765,-39086.20495631754,-36003.117084874764,-43404.22670891604,-31605.67958422656,-44190.44932013146
13995.00834882359,6479.726014104607,-31716.343071024785,-38999.74840876441,-35882.55177528284,-43321.793475364866,-31489.048181658767,-44090.76053986079
14088.103364479945,6401.137280599747,-31829.197028779632,-39116.31275609884,-35723.206189060955,-43437.754325598995,-31475.99476289687,-44140.80609569622
14133.745626657681,6334.707896078575,-31929.9363410397,-39217.119123592274,-35823.0067280539,-43539.87944601529,-31591.821502664272,-44253.123611584146
14030.324105062975,6391.749547928518,-31842.45161324163,-39114.05522990885,-36010.42610531165,-43451.6571106502,-31633.708671773515,-44228.447285705486
13963.917072286258,6455.541426603964,-31744.99800741649,-39013.31591764878,-35942.76737484543,-43350.56017047884,-31536.90326653758,-44129.026726368276
14054.821616985992,6405.182946346158,-31812.768496604982,-39099.10191286825,-35745.82615444972,-43417.68245907813,-31475.547728007765,-44116.845025640134
14143.111007584455,6340.6534601036865,-31910.713840808137,-39205.04918158641,-35780.873689755645,-43523.36150686282,-31560.05967379328,-44212.53284365331
14061.840064744958,6382.607684446298,-31852.845174413345,-39125.74519225898,-35974.12687231623,-43454.42872696266,-31616.654290754115,-44207.30253545076
13971.382554934331,6463.766868563517,-31738.918332924648,-39000.44131284253,-35955.55257267387,-43333.50578945944,-31531.807068801772,-44104.126883045064
14049.367791338896,6442.0856764418695,-31776.491615354018,-39055.58306641377,-35752.19640161948,-43377.87400220323,-31453.106576574635,-44090.62642939406
14141.591088961493,6349.080067763337,-31904.231834916096,-39196.89079486022,-35746.56376201675,-43513.5714427914,-31530.510667623363,-44200.14997722507
14073.082992205978,6354.109210265781,-31888.94324170867,-39170.13575674722,-35957.49717444148,-43496.87468968328,-31627.53959030385,-44240.71839341145
13963.201816463688,6438.174121162191,-31772.021266462954,-39032.24784520243,-36001.97714590754,-43372.64369400069,-31572.554298943796,-44148.58450276667
14028.200689339721,6460.525865617498,-31761.314780868863,-39034.05833650331,-35789.85909102668,-43373.023673656426,-31466.38351278109,-44106.27265051278
14138.707713926759,6373.823448875362,-31890.105532420344,-39180.41755919666,-35730.64931996457,-43504.518986286996,-31519.446554117985,-44198.80887255775
14100.955617541746,6365.039213304426,-31901.32610813691,-39176.930687061635,-35921.890845524176,-43508.587003777866,-31623.382165835163,-44253.03420460632
13988.302825486999,6456.748420804552,-31770.009609461977,-39025.72113582148,-36002.87121568575,-43369.24622884348,-31583.05961883779,-44162.48728781787
14021.986904381145,6482.85525832835,-31730.692890965092,-39002.497673332415,-35813.61899538267,-43333.68460341509,-31464.595373224663,-44075.650760609
14139.266507538141,6393.492983996032,-31848.88891564476,-39148.85689602577,-35706.35297374165,-43468.577381202864,-31491.41746657103,-44158.97806393839
14126.704827154259,6347.82837007384,-31904.32124189392,-39187.1007307888,-35882.75294098294,-43518.13119866028,-31608.45120053902,-44240.941910856
14000.1045465594,6428.026429179482,-31799.513912142982,-39062.422700217096,-36019.41150658268,-43400.89629899219,-31606.216026093487,-44180.480442104395
14000.19395353722,6479.010758282037,-31732.011643887956,-39008.21971991297,-35859.104795349216,-43339.07137382882,-31486.991821168882,-44093.375693962065
14123.307361997053,6411.284972582456,-31845.871430143292,-39128.5838638048,-35708.722258653914,-43454.51813394048,-31480.062780387736,-44149.65738650053
14146.664934952849,6358.378393456745,-31912.054945475455,-39189.157091278685,-35844.978492853465,-43523.048582440446,-31594.21313932099,-44238.32675675473
14020.377578780364,6412.0896353828475,-31835.388461993753,-39082.606325460234,-36021.221997883564,-43427.49487489401,-31625.371471091687,-44205.26852670533
13969.460304911174,6463.856275541339,-31749.244838862996,-39004.93401347804,-35919.63331933419,-43354.695243203074,-31525.3921181431,-44121.06950534219
14094.78653607208,6417.163481374202,-31815.24954023952,-39094.38569478819,-35725.82134316222,-43433.23927321903,-31474.18427159599,-44135.12875260458
14143.98272561821,6343.715649094063,-31916.0335559885,-39196.82373962686,-35812.054373270796,-43531.40813486673,-31578.16458680208,-44233.07409680773
14045.165663381298,6403.797138189929,-31840.2164387961,-39096.41970353362,-36001.865387185266,-43442.91757856817,-31624.186828635557,-44210.02944827431
13985.821781852459,6489.225505498112,-31714.867855890738,-38971.85343168419,-35921.756735057446,-43328.43194346809,-31510.841132502694,-44102.53990918874
14076.771030041104,6442.51035958652,-31779.062065966376,-39059.606380415724,-35728.14592458557,-43396.06832218985,-31453.62066669711,-44101.91406034399
14150.978821632723,6356.634957389231,-31905.617643072328,-39193.001591324995,-35775.66573329756,-43522.28862312897,-31554.941124313013,-44210.90116630807
14062.0188787006,6382.607684446298,-31860.64593322825,-39133.07656444032,-35980.45241599708,-43475.75229117302,-31631.20527639452,-44227.12853278262
13973.81889507996,6471.500572145053,-31743.276923093432,-39004.91166173359,-35969.72357865853,-43349.57669372281,-31547.453289920486,-44117.78379890726
14047.244375615643,6456.502551615543,-31765.718074526558,-39040.07095576179,-35759.57247728974,-43381.29381910489,-31462.248440056854,-44087.81010959269
14145.837920408001,6364.167495270669,-31895.11232317833,-39176.05896902788,-35747.05550039477,-43514.443160825154,-31536.38917641511,-44193.958544010944
14087.052832490544,6375.030443075949,-31882.774160239,-39145.124154701734,-35950.67989238261,-43491.6667332252,-31626.31024435881,-44231.39771597359
13983.273682984554,6468.952473277149,-31750.98827493051,-38993.624030783656,-35990.93538414662,-43354.31526354734,-31561.57959241624,-44137.006299138826
14040.851776701425,6476.082679758391,-31736.884324179213,-38997.20030989651,-35783.55589909028,-43345.70984193204,-31447.69745441645,-44071.24746695131
14155.42681877933,6386.899219381717,-31859.617752983304,-39139.178590676616,-35713.97491860091,-43474.74646267253,-31490.389286326088,-44149.992662667355
14117.205335760753,6366.514428438477,-31884.07056141741,-39161.619742109746,-35902.087199936774,-43502.30616358593,-31604.226720836967,-44220.110085023654
13991.67793889975,6440.185778163169,-31773.451778108094,-39028.73862132295,-36008.23563435503,-43375.6388277577,-31580.310354269786,-44147.10928763262
14008.82172689697,6464.526827874998,-31730.782297942915,-38997.401475596605,-35827.8570566007,-43345.79924890986,-31469.624515727108,-44082.311580456684
14135.55611795856,6386.899219381717,-31844.15034582023,-39132.51777082894,-35705.01186907433,-43467.99623584703,-31481.1803676105,-44144.896464931546
14130.83989987849,6352.388125942723,-31901.0802389479,-39174.22612598254,-35870.8171094438,-43518.10884691583,-31596.180092833056,-44225.60861415966
14012.196840309722,6436.363629861311,-31787.19810094811,-39040.54034239535,-36006.22397735405,-43396.87298499024,-31592.246185808923,-44172.143241422564
13994.985997079135,6475.300368702456,-31725.976672885023,-38979.162452121076,-35856.444937759035,-43325.973251578005,-31473.1784430955,-44065.72658607085
14120.46869045123,6414.928306928672,-31823.497333943527,-39101.44884603606,-35702.53082543979,-43440.145962255716,-31462.918992390514,-44116.6662116845
14154.152769345375,6364.502771437499,-31894.397067355763,-39169.55461139138,-35825.21955075497,-43514.51021605852,-31573.984810588936,-44213.31515470924
14038.527195278073,6426.975897190082,-31801.302051699407,-39051.89502857865,-36000.99366915151,-43410.5969560858,-31603.846741181227,-44177.70882579194
14002.451479727208,6498.881459102805,-31701.054477817357,-38955.64841695409,-35887.558566040825,-43312.45044618255,-31484.66723974553,-44069.23580995033
14098.36281518493,6425.455978567122,-31798.1057522423,-39075.766691656914,-35712.25383427785,-43420.54348236841,-31455.520564975806,-44106.31735400169
14158.980746147723,6358.579559156842,-31891.98307895459,-39170.40397768068,-35788.003896236885,-43515.359582347824,-31556.841022591714,-44206.54257613928
14065.97513746919,6416.537632529454,-31819.183447263655,-39069.754072398435,-35972.27167752644,-43421.92929052464,-31596.895348655624,-44179.429910114995
13990.739165632625,6491.95241832166,-31717.170085569633,-38956.5424867323,-35920.907368768145,-43313.47862642749,-31501.028716686815,-44075.82957456465
14072.859474761424,6441.70569678613,-31778.056237465888,-39045.72594710898,-35735.45494502246,-43393.7437407665,-31449.575000950696,-44090.87229858307
14148.497777998184,6350.890559064217,-31899.962651725134,-39174.47199517155,-35766.07683492623,-43519.42759983869,-31544.949894541493,-44201.379323170106
14076.726326552192,6387.480364737555,-31851.660531957215,-39100.17479660211,-35963.263924510946,-43458.47439270907,-31611.02165115138,-44203.39098017108
13988.19106676472,6476.216790225124,-31733.889190422204,-38963.58328623573,-35954.99377906248,-43326.599100422754,-31524.85567627617,-44094.29211548473
14052.653497773827,6456.770772549006,-31760.86774597976,-39018.12154270668,-35752.37521557513,-43365.37937705271,-31439.382605479077,-44071.29217044022
14142.507510484162,6355.070335277359,-31885.63518352928,-39166.090091000806,-35733.51034325485,-43506.70945724362,-31516.116144194144,-44173.93138097899
14082.806001044037,6357.68548937863,-31884.294078861963,-39127.287462626395,-35943.52733415691,-43491.9126024142,-31619.045927410836,-44214.388038443096
13989.979206321146,6469.690080844174,-31743.701606238083,-38976.05555964179,-35983.06757009835,-43347.00624311045,-31551.364845200165,-44113.33580176065
14029.184166095754,6473.1322494902915,-31735.1408881117,-38998.0049726969,-35788.920317759555,-43354.65053971417,-31457.26400104332,-44069.28051343924
14133.142129557387,6371.342405240823,-31876.0239334135,-39146.06292796885,-35721.82038090472,-43495.33241931587,-31510.394097613585,-44158.665139516015
14100.396823930363,6351.4493526756,-31901.191997670176,-39160.39039616471,-35911.027897718894,-43522.10980917333,-31623.35981409071,-44228.89432059459
13981.709060872683,6435.290746127456,-31781.09607471181,-39021.09432471923,-36011.923672190154,-43388.98281919752,-31591.06154335279,-44145.9693486654
13988.124011531356,6455.384964392778,-31747.09907139529,-38999.41313259758,-35838.65294917261,-43350.359004778744,-31475.637134985584,-44070.42045240646
14121.027484062612,6379.858419878295,-31847.570162721895,-39117.51975029943,-35705.95064234146,-43463.838811378344,-31480.822739699215,-44134.21233108191
14134.147958057876,6350.421172430655,-31889.21146264213,-39158.15522171918,-35851.058167345305,-43505.70362874313,-31585.317145027777,-44211.303497708264
14005.133689061844,6417.521109285487,-31788.516853870973,-39027.732792822455,-36001.03837264042,-43388.24521163049,-31591.06154335279,-44143.06362188621
13981.843171339415,6452.3227754024,-31726.37900428522,-38970.065292127765,-35868.58193499827,-43327.515521945425,-31483.303783333755,-44056.65177782199
14097.289931451074,6375.745698898519,-31834.49439221554,-39102.320564069814,-35716.143037813075,-43443.006985545995,-31472.664352973028,-44111.52531045977
14131.622210934427,6326.01306748546,-31916.815867044435,-39179.52348941845,-35838.85411487271,-43527.09424818686,-31586.702953184005,-44213.069285520236
14018.656494457306,6391.436623506144,-31822.759726376502,-39059.78519437137,-36009.66614600016,-43428.16542722767,-31614.0614883973,-44181.15099443805
13977.752802104093,6458.044821982959,-31722.132172838712,-38968.34420780471,-35907.473970350504,-43330.91298710263,-31501.073420175722,-44078.17650773245
14091.79140231507,6407.909859169706,-31787.041638736922,-39060.90278159414,-35709.88454936559,-43414.26264217647,-31451.899582374048,-44091.967534061376
14150.531786743617,6338.530044380432,-31897.638070301782,-39167.23002996803,-35791.714285816466,-43521.439256839665,-31563.9488773285,-44201.379323170106
14055.514521064106,6386.0275013479595,-31834.67320617118,-39081.48873823747,-35987.56027073387,-43443.67753787965,-31618.64359601064,-44188.50471836385
13975.38351719183,6456.122571959802,-31725.172010084632,-38969.12651886064,-35938.34172944328,-43330.7788766359,-31523.2910541643,-44087.47483342586
14071.808942772024,6429.009905935515,-31766.209812904577,-39032.33725218025,-35727.96711062993,-43384.60187728428,-31445.886963115572,-44077.05892050969
14152.051705366577,6347.090762506815,-31891.066657431922,-39154.08720422831,-35753.31398884225,-43509.65988751172,-31535.092775236702,-44177.530011836294
14073.97706198419,6371.834143618839,-31855.92971514818,-39094.51980525492,-35959.50883144246,-43467.6609596802,-31616.564883776296,-44198.07126499072
13983.161924262276,6458.469505127609,-31724.09912635078,-38957.72712918844,-35955.8878488407,-43332.745830147964,-31530.46596413445,-44088.83828983764
14041.790549968548,6435.134283916269,-31751.792937730905,-39001.98358320994,-35755.012721420855,-43362.42894678461,-31445.59639043765,-44061.345644157605
14149.838882665503,6352.321070709357,-31878.59438402586,-39146.375852391226,-35723.02737510531,-43496.87468968328,-31514.48446684891,-44161.99554943986
14099.100422751955,6356.523198666954,-31877.70031424765,-39123.82294223582,-35931.41268866214,-43488.11280585681,-31615.49200004244,-44208.06249476224
13994.784831379036,6459.385926650278,-31739.32066432484,-38976.61435325317,-35982.08409334232,-43349.62139721172,-31555.030531290835,-44116.88972912905
14032.246355086132,6466.762002320529,-31727.988329886,-38980.16828062156,-35791.11078871618,-43344.480495987,-31454.26886728631,-44064.00550174779
14137.791292404092,6367.6543674056975,-31861.45059602864,-39138.28452089841,-35716.81359014673,-43484.22360232158,-31500.916957964535,-44147.198694610444
14117.719425883226,6348.767143340962,-31882.908270705735,-39154.02014899494,-35896.34280161176,-43505.32364908739,-31604.897273170624,-44209.22478547392
14003.256142527598,6437.280051383978,-31753.268152864952,-39006.23041465645,-35996.72448596054,-43371.10142363327,-31571.749636143406,-44129.87609265758
14006.407738495796,6457.329566160389,-31718.89116989269,-38989.53366154834,-35829.108754290195,-43338.71374591753,-31463.567192979717,-44063.513763369774
14120.960428829245,6376.729175654552,-31842.563371963905,-39123.241796879985,-35705.101276052155,-43467.392738746734,-31479.50398677635,-44143.60006375314
14129.543498700083,6339.692335092108,-31898.062753446433,-39175.61193413877,-35860.89293490564,-43524.70261153014,-31592.1567788311,-44239.980785844426
14026.457253272207,6432.586185048364,-31769.115539683768,-39036.405269671115,-35994.66812547066,-43390.5921447983,-31576.95759260149,-44165.728290763895
13998.405813980797,6476.462659414132,-31705.41306798614,-38972.14400436211,-35856.46728950349,-43314.35034446124,-31456.548745220753,-44054.640120821015
14105.783594344091,6399.55030674342,-31818.803467607915,-39104.1310553707,-35700.005078316346,-43427.98661327203,-31445.03759682627,-44109.33483950315
14140.294687783085,6335.7807798124295,-31906.489361106083,-39187.972448822555,-35815.72005936147,-43515.27017537,-31557.690388881016,-44217.27141347783
14031.709913219203,6392.643617706731,-31808.96870004758,-39073.84444163376,-35990.60010797979,-43414.284993920926,-31584.177206060554,-44184.45905261744
13982.021985295056,6463.18572320768,-31713.70556517906,-38976.3014288308,-35896.365153356215,-43315.423228195104,-31475.391265796577,-44083.38446419054
14080.54847485405,6405.227649835068,-31797.144627230722,-39079.14180506967,-35711.650337177554,-43402.63973505971,-31435.918085088502,-44106.093836557135
14143.245118051187,6328.963497753561,-31914.40187864326,-39196.354352993294,-35786.72984680293,-43511.62684102379,-31540.077214250236,-44215.05859077675
14054.195768141242,6379.9254751116605,-31845.02206385399,-39108.154369372656,-35975.62443919473,-43433.574549385856,-31590.815674163783,-44204.79914007177
13985.061822540978,6468.684252343685,-31716.588940213795,-38979.2518590989,-35923.54487461387,-43305.74492284595,-31486.880062446602,-44094.20270850691
14065.908082235825,6426.372400089789,-31774.949344986602,-39054.89016233566,-35730.06817460873,-43369.58150501031,-31428.094974529147,-44105.669153412484
14159.696001970293,6352.63399513173,-31886.59630854086,-39180.909297574675,-35739.85823868016,-43484.178898832666,-31508.114219679144,-44203.16746272653
14082.426021388295,6369.375451728756,-31857.69550296015,-39138.21746566504,-35946.410709191645,-43445.510380924985,-31591.218005563976,-44224.26750949234
13982.983110306635,6448.433571867177,-31733.308045066366,-39005.89513848962,-35960.64877040968,-43323.64867015465,-31519.446554117985,-44128.40087752353
14044.852738958925,6438.777618262484,-31748.28371385142,-39038.372223183185,-35754.722148742934,-43347.162705321636,-31427.156201262023,-44098.606002164604
14145.815568663547,6345.280271205935,-31882.193014883163,-39188.7994633674,-35720.14400007058,-43488.35867504581,-31496.75953349585,-44207.83897731769
14092.640768604371,6338.999431013994,-31885.344610851364,-39172.48268991503,-35922.69550832457,-43477.13809932925,-31595.86716841068,-44248.34033827071
13994.494258701117,6438.08471418437,-31738.404242802175,-39018.61328108469,-35974.50685197197,-43327.8284463678,-31533.349339169188,-44136.64867122754
14030.771139952081,6454.6473568257525,-31721.439268760598,-39019.52970260736,-35780.247840910895,-43318.26189974092,-31427.714994873408,-44080.14346124452
14138.953583115768,6357.730192867541,-31849.045377855946,-39160.85978279827,-35695.244156747365,-43464.062328822896,-31469.825681427206,-44177.619418814116
14135.667876680838,6349.415343930166,-31866.59149725336,-39168.61583812426,-35865.3632837967,-43474.43353825016,-31570.52029019836,-44235.622195675634
14012.040378098534,6423.645487266242,-31755.346865099298,-39042.216723229496,-35985.861538155266,-43352.191847824084,-31556.505746424886,-44165.28125587479
14010.989846109134,6452.1216097023025,-31708.810533143347,-39004.37521986666,-35823.20789375399,-43312.472797927,-31446.579867193686,-44091.98988580584
14124.246135264175,6370.336576740334,-31829.48760145755,-39141.43611686661,-35688.47157817741,-43436.16735174267,-31453.106576574635,-44156.273502859294
14137.32190577053,6326.884785519217,-31895.179378411696,-39201.47290247356,-35844.419699242084,-43495.53358501597,-31569.872089609158,-44245.7922394028
14021.070482858478,6404.333580056856,-31783.10773171279,-39072.19041254406,-35996.27745107144,-43379.34921733728,-31574.610659433685,-44186.53776485178
13988.526342931551,6450.311118401422,-31713.2361785455,-38999.368429108676,-35872.78406295586,-43308.15891124713,-31466.69643720346,-44099.097740542624
14103.034329776088,6382.965312357583,-31804.565406389884,-39113.54113978638,-35702.95550858444,-43414.84378753231,-31445.97637009339,-44148.048060899746
14146.173196574831,6323.82259652884,-31896.811055756934,-39195.48263495954,-35812.054373270796,-43494.97479140458,-31553.465909178965,-44237.27622476533
14041.72349473518,6387.256847293002,-31811.807371593404,-39094.6762674661,-35992.768227191955,-43401.544499581396,-31586.501787483907,-44201.28991619228
13998.405813980797,6468.036051754481,-31702.79791388487,-38978.42484455405,-35903.0259732039,-43294.05496049583,-31470.89856516106,-44091.8557753391
14096.30645469504,6406.144071357736,-31786.14756895871,-39073.84444163376,-35712.32088951122,-43382.65727551666,-31421.903541315027,-44115.72743841737
14160.94769965979,6328.628221586731,-31886.909232963233,-39190.31938199036,-35769.898983228086,-43489.96800064659,-31517.72546979493,-44210.27531746332
14063.181169412277,6371.275350007457,-31836.953084105622,-39114.636375264694,-35973.612782193755,-43420.61053760177,-31580.310354269786,-44200.261735947344
13983.184276006732,6454.1779701921905,-31723.1380013392,-38988.05844641429,-35943.01324403444,-43298.011219264416,-31490.121065392625,-44087.72070261487
14064.298756635042,6422.214975621102,-31761.314780868863,-39060.90278159414,-35738.60654099066,-43356.41632752614,-31419.4672011694,-44086.379597947554
14146.106141341466,6330.863396032262,-31895.201730156154,-39194.58856518132,-35756.57734353273,-43491.97965764757,-31513.90332149307,-44205.290878449785
14082.336614410475,6360.367698713267,-31865.026875141488,-39145.41472737965,-35959.6876453981,-43458.13911654224,-31598.996412634424,-44237.5444456988
13998.092889558422,6463.297481929956,-31713.70556517906,-38993.31110636129,-35959.352369231274,-43302.213347222016,-31503.912091721548,-44100.59530742113
14046.730285493171,6454.08856321437,-31735.1408881117,-39024.96117651,-35763.327570358226,-43322.48637944298,-31412.001718521326,-44053.23196092033
14148.162501831353,6362.6699283921635,-31879.466102059618,-39170.80630908088,-35729.129401341605,-43467.616256191286,-31481.649754244063,-44168.20933439843
14111.773861858113,6361.887617336228,-31878.996715426056,-39150.287407670905,-35927.43407814909,-43459.34611074282,-31578.566918202272,-44213.62807913162
14005.58072395095,6454.580301592387,-31724.881437406715,-39003.45879834399,-35987.672029456146,-43320.56412941982,-31523.738089053404,-44117.33676401815
14038.996581911635,6470.338281433378,-31702.574396440315,-38991.81353948278,-35796.07287598525,-43306.884861813174,-31418.193151735446,-44063.82668779215
14144.60857446296,6367.11792553877,-31846.296113287943,-39149.88507627071,-35715.427781990504,-43454.83105836285,-31469.780977938295,-44166.33178786418
14132.315115012541,6342.441599660111,-31881.656573016237,-39180.61872489676,-35889.34670559725,-43487.039922122945,-31577.24816527941,-44236.471561964936
14010.028721097557,6421.723237243085,-31768.310876883374,-39040.473287161985,-36010.35905007828,-43357.86919091573,-31558.025665047848,-44153.904217947034
14012.82268915447,6466.963168020627,-31711.17981805561,-38994.22752788395,-35848.42066149958,-43298.346495431244,-31443.584733436674,-44062.37382440255
14134.147958057876,6390.810774661395,-31825.330176988864,-39117.363288088236,-35708.722258653914,-43416.27429917745,-31443.964713092413,-44120.354249519616
14140.115873827443,6326.303640163379,-31905.237663416585,-39190.02880931244,-35862.01052212841,-43495.578288504876,-31569.58151693124,-44222.85934959166
14017.225982812166,6395.079957852359,-31806.73352560205,-39072.99507534446,-36023.54657930691,-43392.8943744772,-31586.412380506084,-44182.96148573893
13998.76344189208,6465.711470331129,-31713.906730879156,-38983.31987658976,-35889.83844397526,-43305.38729493467,-31465.46709125842,-44080.18816473343
14108.398748445363,6397.449242764622,-31807.404077935706,-39102.07469488081,-35715.67365117951,-43403.26558390446,-31439.89669560155,-44112.374676749074
14155.627984479426,6330.773989054441,-31896.49813133456,-39187.1007307888,-35819.58691115223,-43498.28284958397,-31554.449385934997,-44216.60086114417
14042.97519242468,6384.462879236088,-31825.352528733318,-39092.35168604275,-36008.906186688684,-43415.40258114369,-31599.97988939046,-44197.5795266127
13986.62644465285,6459.117705716813,-31712.252701789464,-38986.51617604687,-35924.260130436436,-43302.95095478904,-31487.930594436002,-44089.41943519347
14084.124753966898,6408.401597547722,-31781.140778200723,-39073.330351511286,-35727.96711062993,-43378.09751964778,-31434.442869954455,-44096.59434516363
14156.343240301996,6329.432884387123,-31894.68764003368,-39192.442797713615,-35784.785245035324,-43499.84747169584,-31541.127746239636,-44212.13051225311
14065.483399091174,6364.770992370963,-31842.384558008263,-39117.720915999525,-35983.35814277627,-43434.28980520843,-31604.405534792608,-44209.761227340845
13990.202723765698,6457.955415005138,-31711.80566690036,-38973.485109029425,-35947.43888943659,-43296.51365238591,-31503.643870788084,-44085.463176424884
14075.474628862696,6431.245080381046,-31742.718129482048,-39030.459705646004,-35737.801878190265,-43337.86437962823,-31419.847180825138,-44058.10464121159
14162.199397349286,6334.126750722737,-31880.91896544921,-39176.148376005694,-35746.831982950214,-43476.288733039946,-31505.1861411555,-44166.93528496448
14088.773916813603,6343.603890371787,-31868.40198855424,-39140.854971510766,-35961.14050878769,-43457.51326769749,-31602.59504349173,-44208.95656454046
13988.034604553533,6433.301440870934,-31734.62679798923,-38994.33928660623,-35982.776997420435,-43317.88192008519,-31527.984920499912,-44102.62931616656
14046.216195370698,6425.433626822666,-31734.313873566854,-39013.45002811552,-35782.058332211775,-43331.74000164748,-31429.033747796268,-44065.77128955976
14142.909841884357,6325.856605274273,-31872.581764767383,-39171.00747478098,-35730.761078686846,-43477.92041038518,-31487.170635124523,-44168.05287218725
14103.928399554301,6322.235622672513,-31885.679887018192,-39164.95015203359,-35926.271787437414,-43474.76881441699,-31589.474569496462,-44210.23061397441
14003.502011716606,6425.7689029894955,-31739.70064398058,-39002.63178379915,-35986.17446257764,-43328.43194346809,-31530.980054256925,-44108.619583680585
14020.601096224917,6436.050705438937,-31721.640434460693,-38993.199347639005,-35808.88042555814,-43318.843045096764,-31432.162992020014,-44056.942350499914
14129.230574277708,6341.480474648532,-31857.74020644906,-39146.442907624594,-35717.90882562505,-43462.63181717775,-31474.36308555163,-44151.534933034774
14113.36083571444,6304.331875363812,-31907.8304657734,-39184.75379762099,-35897.125112667694,-43502.23910835256,-31593.92256664307,-44232.24708226289
14011.146308320322,6405.652332979719,-31774.882289753234,-39028.1127724782,-36009.8002564669,-43358.22681882702,-31563.904173839594,-44141.186075351965
14008.374692007863,6447.673612555696,-31713.459695990052,-38983.0516556563,-35854.14270808014,-43305.27553621239,-31451.18432655148,-44056.98705398882
14131.17517604532,6385.468707736577,-31821.642139153737,-39118.25735786645,-35709.79514238777,-43425.12558998175,-31449.28442827278,-44116.6662116845
14149.145978587387,6329.566994853854,-31897.88393949079,-39177.08714927282,-35851.90753363461,-43493.00783789252,-31564.306505239787,-44200.2840876918
14041.745846479636,6405.071187623881,-31787.287507925932,-39056.25361874743,-36012.907148946186,-43379.08099640381,-31576.28704026783,-44148.85272370013
14008.464098985685,6465.1526767197465,-31702.864969118236,-38979.72124573246,-35885.07752240628,-43302.3698094332,-31462.583716223686,-44064.40783314798
14106.141222255377,6386.541591470432,-31795.781170818947,-39100.443017535574,-35721.41804950453,-43412.4968543645,-31444.098823559147,-44112.41938023799
14160.925347915334,6329.410532642667,-31894.844102244868,-39194.834434370336,-35815.451838428,-43497.03115189447,-31549.487298665917,-44199.278259191306
14063.561149068017,6395.012902618993,-31825.01725256649,-39105.002773404456,-36005.17344536465,-43418.755342811986,-31599.577557990262,-44184.682570061996
14002.406776238297,6473.489877401576,-31710.263396532944,-38985.309181846285,-35931.41268866214,-43304.35911468972,-31491.529225293307,-44069.3028651837
14096.105288994944,6426.730028001074,-31758.90079246769,-39050.2186477445,-35721.373346015615,-43365.5358392639,-31422.84231458215,-44068.699368083406
14173.554083532583,6351.181131742136,-31874.638125257272,-39170.96277129206,-35765.58509654822,-43484.91650639969,-31520.698251807484,-44180.99453222687
14084.9741202562,6387.234495548546,-31833.600322437327,-39112.11062814124,-35978.440758996105,-43437.30729070989,-31602.170360347078,-44196.70780857895
13990.761517377081,6467.23138895409,-31721.729841438515,-38988.52783304785,-35966.4378722236,-43317.09960902925,-31521.81583903025,-44095.49910968532
14061.97417521169,6440.945737474649,-31760.577173301837,-39038.34987143873,-35768.80374774978,-43363.25596132946,-31448.680931172483,-44087.832461337144
14168.971975919245,6364.636881904231,-31880.248413115554,-39166.53712588992,-35752.755195230864,-43484.58123023286,-31513.00925171486,-44185.42017762902
14107.41527168933,6375.723347154063,-31860.2212500836,-39133.68006154062,-35953.16093601715,-43452.998215317515,-31598.147046345122,-44205.3355819387
14015.795471167026,6481.8270780834055,-31710.732783166502,-38966.62312348165,-35978.016075851454,-43305.16377749012,-31518.61953957314,-44090.291153227234
14071.943053238756,6485.47041242962,-31717.28184429191,-38986.11384464668,-35775.79984376429,-43318.641879396666,-31421.098878514636,-44048.33692888462
14183.724127259748,6408.1557283587135,-31849.984151123066,-39123.241796879985,-35715.45013373496,-43451.321834483366,-31473.781940195793,-44141.610758496616
14143.602745962471,6394.767033429985,-31868.960782165625,-39131.333128372804,-35911.944319241564,-43465.69400616813,-31580.19859554751,-44195.590221356186
14025.965514894191,6483.481107173098,-31747.3449405843,-38987.94668769201,-36007.67684074365,-43337.90908311714,-31550.560182399775,-44126.41157226701
14059.984869955168,6516.874613389327,-31699.04282081638,-38956.52013498785,-35814.89304481662,-43293.42911165108,-31426.46329718391,-44030.61199553156
14167.51911252965,6416.202356362624,-31839.612941695803,-39106.880319938704,-35708.25287202035,-43438.06725002137,-31460.884983645083,-44116.97913610687
14163.696964227793,6382.942960613127,-31885.366962595817,-39145.37002389074,-35885.72572299549,-43494.393646048746,-31586.56884271727,-44225.429800204016
14052.139407651355,6471.433516911688,-31751.770585986447,-39007.07978094576,-36004.368782564256,-43351.409536768144,-31562.09368253871,-44133.720592703896
14038.63895400035,6513.678313932218,-31693.588995169284,-38943.84669588169,-35855.50616449191,-43295.37371341869,-31447.429233482988,-44043.71011778237
14149.905937898868,6427.55704254592,-31806.197083735122,-39076.99603760195,-35706.21886327492,-43410.1946246856,-31444.36704449261,-44087.832461337144
14178.51617080166,6380.484268723044,-31882.751808494548,-39143.53718084541,-35838.72000440598,-43478.300390040924,-31560.394949960108,-44180.79336652677
14078.045079475056,6465.465601142121,-31771.462472851574,-39011.706592048,-35995.71865746006,-43362.40659504016,-31570.408531476085,-44137.3192235612
14027.530137006062,6514.684142432707,-31695.69005914808,-38936.023585322335,-35888.2738218634,-43282.54381210134,-31463.857765657638,-44038.12218166854
14132.069245823533,6442.488007842066,-31797.122275486265,-39059.695787393546,-35720.65809019304,-43387.68641801911,-31440.008454323826,-44075.471946653364
14196.28580764363,6386.608646703798,-31878.393218325764,-39145.07945121282,-35794.508253873384,-43476.84752665133,-31537.61852236015,-44175.80892751324
14088.237474946676,6433.1002751708365,-31803.06783951138,-39052.54322916785,-35986.487387000016,-43392.939077966104,-31587.731133428948,-44151.35611907913
14023.618581726383,6514.550031965975,-31686.50349217695,-38934.16839053254,-35919.11922921172,-43278.855774266216,-31483.61670775613,-44042.95015847089
14120.669856151326,6478.228447226102,-31743.23221960452,-39006.34217337873,-35719.40639250355,-43341.59712095227,-31420.897712814538,-44045.63236780553
14206.969941493267,6403.305399811912,-31859.193069838653,-39126.61691029274,-35751.81642196375,-43461.46952646608,-31511.75755402536,-44150.68556674547
14115.75247237116,6425.7689029894955,-31829.420546224184,-39066.93775259707,-35964.515622200444,-43415.89431952171,-31593.989621876437,-44172.2773518893
14022.746863692626,6507.218659784635,-31704.340184252287,-38941.20919003597,-35950.746947615975,-43292.53504187287,-31509.924710980027,-44073.1026617411
14093.356024426941,6488.286732230989,-31731.51990550994,-38984.57157427926,-35745.87085793863,-43329.884806857684,-31428.36319546261,-44052.33789114212
14183.9476447043,6391.88365839525,-31870.279535088484,-39133.34478537378,-35733.890322910585,-43472.73480567155,-31509.85765574666,-44167.13645066458
14119.440510206285,6391.727196184063,-31858.701331460637,-39095.749151199954,-35939.97340678852,-43450.24895074951,-31601.499808013417,-44198.160671968544
14017.24833455662,6484.866915329328,-31723.51798099494,-38947.355919761176,-35980.474767741536,-43307.04132402436,-31534.39987115859,-44081.08223451165
14068.143256681355,6491.795956110473,-31723.339167039296,-38966.44430952601,-35785.56755609126,-43319.960632319526,-31438.756756634328,-44050.88502775253
14184.774659249148,6403.975952145571,-31838.428299239673,-39109.76369497344,-35709.996308087866,-43453.10997403979,-31478.632268742596,-44142.32601431919
14151.694077455293,6386.854515892806,-31863.30579081843,-39106.47798853851,-35901.79662725885,-43454.808706618394,-31581.763217659383,-44174.959561223935
14043.466930802695,6483.078775772903,-31725.216713573544,-38953.39089076411,-35985.7944829219,-43309.56707114781,-31537.66322584906,-44075.337836186634
14055.134541408366,6505.318761505933,-31701.0321260729,-38931.46382945345,-35818.71519311848,-43283.66139932411,-31433.146468776045,-44011.5906610001
14161.215920593253,6415.643562751242,-31838.473002728584,-39081.73460742648,-35714.243139534374,-43427.74074408302,-31465.668256958517,-44104.93154584546
14159.651298481382,6381.870076879272,-31885.21050038463,-39131.51194232845,-35871.91234492211,-43479.44032900815,-31580.109188569688,-44193.489157377386
14050.127750650377,6470.092412244369,-31767.05917919388,-38988.594888281215,-36009.12970413324,-43351.87892340171,-31570.252069264898,-44126.54568273374
14039.465968545195,6517.031075600515,-31703.021431329424,-38937.074117311735,-35862.68107446207,-43291.26099243892,-31453.687721930473,-44041.497295081295
14161.506493271172,6445.818417765906,-31802.62080462227,-39055.44895594704,-35704.609537674136,-43402.48327284852,-31440.611951424118,-44090.425263693964
14195.52584833215,6393.291818295935,-31877.70031424765,-39123.28650036889,-35828.03587055634,-43472.04190159344,-31551.521307411353,-44170.332750121685
14082.694242321759,6457.553083604942,-31776.33515314283,-39006.543339078824,-35995.36102954877,-43361.91485666214,-31569.983848331434,-44117.24735704033
14023.998561382123,6508.090377818391,-31698.819303371827,-38926.56879741774,-35901.5731098143,-43283.23671617946,-31468.953963393447,-44030.164960642454
14131.868080123435,6450.735801546073,-31781.453702623097,-39032.27019694688,-35716.902997124555,-43374.36477832375,-31430.039576296756,-44060.85390577959
14185.154638904887,6376.684472165642,-31890.329049864897,-39138.329224387315,-35796.00582075189,-43480.44615750863,-31534.57868511423,-44164.49894481885
14087.410460401828,6427.311173356912,-31823.20676126561,-39046.284740720366,-35997.64090748321,-43400.51631933646,-31590.994488119424,-44156.09468890366
14032.000485897122,6515.846433144383,-31693.186663769087,-38915.37057344563,-35923.09783972476,-43270.65268405112,-31476.262983830333,-44036.66931827895
14120.22282126222,6476.552066391953,-31749.021321418444,-38996.61916454067,-35716.50066572436,-43336.880902872195,-31407.68783184145,-44029.0920769086
14204.086566458533,6396.7116351975965,-31865.406854797227,-39114.54696828687,-35749.80476496277,-43456.842715363826,-31503.420353343532,-44136.291043316254
14128.828242877513,6437.168292661702,-31826.850095611826,-39052.63263614567,-35948.57882840381,-43402.103293192784,-31575.415322234076,-44143.354194564134
14027.954820150713,6524.764779182051,-31712.677384934115,-38924.914768328046,-35953.339749972794,-43279.86160276671,-31500.71579226444,-44043.75482127128
14094.808887816536,6503.709435905152,-31732.95041715508,-38967.405434537584,-35748.62012250663,-43318.93245207459,-31419.69071861395,-44025.42639081793
14188.954435462289,6397.31513229789,-31869.139596121266,-39123.17474164662,-35733.264474065836,-43462.67652066667,-31501.833379487205,-44138.79443869525
14139.244155793687,6408.043969636437,-31860.936505906167,-39097.514939011926,-35935.14542998617,-43444.52690416895,-31595.129560843656,-44180.949828737954
14029.027703884567,6497.003912568559,-31732.123402610232,-38952.63093145263,-35983.6934189431,-43311.914004315615,-31535.159830470067,-44082.311580456684
14061.124808922388,6490.298389231967,-31727.00485312997,-38948.51821047285,-35789.63557358213,-43308.918870558606,-31433.191172264957,-44025.7393152403
14175.811609722568,6408.513356269998,-31852.666360457704,-39097.872566923215,-35707.13528479759,-43439.855389577795,-31473.80429194025,-44105.40093247902
14143.08865584,6390.184925816647,-31888.49620681956,-39115.86572120973,-35906.781066272386,-43469.60556144781,-31593.050848609313,-44179.429910114995
14040.851776701425,6490.85718284335,-31749.446004563095,-38962.309236801775,-35996.72448596054,-43326.599100422754,-31555.9469528135,-44096.01319980779
14060.297794377542,6526.128235593825,-31701.613271428738,-38933.38607947661,-35813.57429189376,-43291.8197860503,-31439.315550245712,-44027.929786196924
14168.256720096675,6431.55800480342,-31821.083345542356,-39074.06795907831,-35699.93802308298,-43423.11393298077,-31458.202774310445,-44098.62835390906
14172.682365498826,6396.018731119482,-31867.038532142466,-39113.585843275294,-35856.646103459134,-43468.93500911415,-31567.01106631888,-44175.31718913522
14046.551471537528,6467.007871509537,-31765.896888482202,-38986.67263825806,-35999.80902669537,-43360.59610373928,-31570.319124498266,-44124.44461875494
14023.640933470839,6505.207002783657,-31694.46071320304,-38914.27533796732,-35861.04939711683,-43285.33778015826,-31455.297047531254,-44022.52066403874
14149.436551265306,6440.476350841088,-31791.176711461154,-39032.426659158074,-35696.40644745904,-43389.1392814087,-31435.716919388407,-44064.698405825904
14187.590979050516,6392.285989795446,-31872.157081622732,-39113.56349153084,-35815.831818083745,-43476.333436528854,-31549.95668529948,-44173.57375306771
14089.533876125084,6475.23331346909,-31768.89202223921,-38983.72220798996,-35979.759511918965,-43364.53001076341,-31565.602906418197,-44129.89844440204
14024.713817204693,6523.334267536911,-31691.577338168307,-38904.977012273914,-35898.466217335015,-43278.229925421474,-31468.059893615235,-44029.896739708995
14127.755359143659,6464.772697064006,-31779.285583410932,-39009.04673445782,-35713.21495928943,-43372.0849003893,-31429.257265240823,-44058.17169644495
14187.56862730606,6385.915742625683,-31886.64101202977,-39120.716049756535,-35792.98833525042,-43476.26638129549,-31535.606865359172,-44155.29002610326
14096.105288994944,6439.403467107233,-31809.19221749213,-39024.00005149842,-35981.54765147539,-43393.11789192175,-31585.138331072132,-44139.46499102891
14026.457253272207,6522.194328569691,-31694.907748092148,-38896.997439503364,-35930.36215667274,-43272.41847186309,-31482.923803678015,-44034.94823395589
14121.027484062612,6489.3372642203885,-31732.32456831033,-38970.64643748361,-35721.21688380443,-43331.851760369755,-31408.64895685303,-44026.36516408505
14205.248857170209,6406.2781818244675,-31855.907363403723,-39098.74428495697,-35742.294578825786,-43451.85827635029,-31495.172559639523,-44120.73422917536
14132.069245823533,6435.782484505473,-31817.283548984953,-39034.77359232588,-35945.11430801324,-43408.674706062644,-31575.996467589914,-44138.190941594956
14035.755578965614,6521.412017513754,-31692.04672480187,-38894.89637552457,-35950.8363545938,-43273.87133525268,-31494.166731139034,-44037.228111890334
14085.465858634218,6490.253685743057,-31720.455792004563,-38951.84862039669,-35749.55889577376,-43313.47862642749,-31409.744192331338,-44011.72477146683
14185.311101116074,6401.897239911228,-31849.626523211784,-39090.72000869751,-35720.50162798186,-43449.19841876011,-31476.710018719437,-44113.17933954947
14136.718408670236,6407.8651556807945,-31844.843249898346,-39063.76380488442,-35918.2251594335,-43437.41904943217,-31573.29190651082,-44155.670005759006
14027.463081772696,6499.529659692009,-31717.37125126973,-38926.97112881793,-35975.62443919473,-43308.0248007804,-31523.022833230836,-44069.01229250578
14053.413457085308,6495.662807901241,-31711.962129111547,-38933.766059132344,-35795.692896329514,-43312.11517001571,-31428.162029762512,-44022.18538787191
14161.528845015628,6399.662065465697,-31837.44482248364,-39082.18164231558,-35713.46082847844,-43446.04682279192,-31469.177480838,-44111.10062731512
14140.115873827443,6376.863286121284,-31874.36990432381,-39103.41579954813,-35897.37098185671,-43475.34995977282,-31586.21121480599,-44185.64369507357
14028.424206784273,6465.331490675389,-31744.148641127187,-38951.37923376313,-36002.89356743021,-43338.87020812872,-31558.785624359327,-44099.14244403153
14035.643820243338,6498.948514336171,-31703.066134818335,-38917.24811997988,-35834.29435900383,-43295.8207483078,-31447.69745441645,-44017.446818047385
14157.70669671377,6426.372400089789,-31818.781115863458,-39049.05635703282,-35704.92246209651,-43422.1975114581,-31460.348541778156,-44096.57199341917
14164.546330517094,6383.50175422451,-31879.153177637243,-39104.421628048614,-35861.138804094655,-43479.149756330226,-31573.895403611114,-44177.37354962511
14037.655477244316,6451.495760857554,-31780.269060166964,-38973.7980334518,-36014.22590186905,-43353.309435046845,-31579.796264147317,-44100.17062427648
14025.429073027262,6514.840604643894,-31696.51707369293,-38904.75349482936,-35868.42547278708,-43279.36986438869,-31462.136681334578,-44011.791826700195
14136.427835992317,6435.424856594188,-31793.993031262522,-39030.37029866818,-35711.315061010726,-43398.906993735676,-31450.60318119564,-44068.22998144984
14167.18383636282,6367.520256938966,-31890.507863820538,-39119.4867038115,-35829.08640254574,-43487.4646052676,-31566.0499413073,-44168.61166579863
14070.64665206035,6441.504531086031,-31782.504234612494,-38996.17212965157,-35987.85084341179,-43371.61551375574,-31579.483339724942,-44117.627336696074
14021.875145658869,6515.086473832903,-31681.027314785402,-38893.42116039052,-35896.27574637839,-43273.17843117457,-31466.27175405881,-44009.78016969922
14132.762149901648,6474.629816368797,-31752.262324364463,-38975.56382126377,-35705.21303477443,-43354.02469086942,-31418.573131391186,-44030.947271698395
14191.860162241479,6394.0070741185045,-31867.709084476126,-39102.16410185863,-35770.72599777293,-43465.872820123775,-31522.0393564748,-44133.74294444835
14096.909951795335,6433.703772271129,-31808.700479114115,-39019.57440609627,-35969.477709469524,-43389.76513025345,-31578.924546113558,-44117.73909541835
14024.333837548953,6513.924183121227,-31698.148751038167,-38896.93038427,-35932.41851716262,-43267.50108808292,-31484.24255660088,-44005.17571034142
14119.284047995097,6488.3314357199,-31728.055385119365,-38954.32966403123,-35724.524941983815,-43318.15014101865,-31407.97840451937,-43995.05037010317
14199.795031523114,6393.224763062569,-31868.133767620777,-39102.901709425656,-35750.00593066287,-43460.66486366569,-31508.51655107934,-44117.78379890726
14126.570716687527,6421.410312820711,-31839.277665528974,-39047.58114189877,-35954.77026161793,-43419.4482468901,-31591.575633475262,-44140.11319161811
14027.574840494972,6509.252668530067,-31716.119553580233,-38905.93813728549,-35970.72940715902,-43283.01319873491,-31512.919844737036,-44028.220358874845
14088.88567553588,6496.378063723811,-31725.75315544047,-38934.70483239947,-35764.82513723673,-43307.10837925773,-31422.238817481855,-43997.62082071553
14190.876685485446,6400.667893966186,-31863.283439073974,-39087.41195051813,-35729.39762227507,-43449.868971093776,-31493.362068338643,-44109.29013601424
14142.261641295152,6399.55030674342,-31872.581764767383,-39079.25356379194,-35934.02784276341,-43452.14884902821,-31598.705839956507,-44165.19184889697
14022.165718336788,6476.842639069872,-31745.33328358332,-38948.741727917404,-36005.57577676485,-43331.695298158564,-31555.455214435486,-44083.6079816351
14046.395009326341,6480.798897838462,-31727.876571163724,-38952.98855936391,-35816.94940530651,-43316.80903635133,-31449.776166650794,-44016.396286057985
14171.698888742792,6406.524051013476,-31847.88308714427,-39089.31184879683,-35715.02545059031,-43437.73197385454,-31473.021980884314,-44084.61381013558
14162.601728749481,6398.633885220753,-31870.391293810764,-39107.41676180563,-35891.29130736486,-43470.49963122602,-31577.024647834856,-44156.005281925834
14036.962573166202,6477.781412336995,-31752.28467610892,-38976.368484064165,-36007.2968610879,-43348.30264428886,-31556.729263869438,-44081.66337986748
14038.281326089065,6511.331380764411,-31705.301309263865,-38943.578474948226,-35848.890048133144,-43306.08019901278,-31450.625532940096,-44016.329230824624
14172.771772476646,6449.1264759452915,-31810.533322159452,-39054.26431349091,-35704.8777586076,-43412.452150875586,-31445.015245081813,-44074.86844955307
14189.200304651298,6400.712597455096,-31878.25910785903,-39123.42061083563,-35852.24280980144,-43479.0603493524,-31559.500880181895,-44168.29874137625
14076.905140507835,6479.837772826883,-31764.533432070428,-38989.39955108161,-36005.32990757584,-43358.74090894948,-31563.39008371712,-44116.934432617956
14057.88380597637,6550.469285305654,-31686.101160776754,-38919.259776980856,-35872.873469933686,-43276.64295156515,-31445.864611371115,-44025.493446051296
14187.9486069618,6491.125403776813,-31785.365257902773,-39036.78524932686,-35702.17319752851,-43382.36670283874,-31425.368061705598,-44069.70519658389
14216.022397997665,6402.299571311423,-31889.390276597773,-39128.74032601599,-35809.86390231418,-43479.75325343052,-31538.33377818272,-44178.06645370322
14094.317149438519,6441.996269464049,-31800.028002265455,-39028.42569690057,-35992.65646846968,-43375.14708937968,-31565.200575018,-44133.005336881324
14031.531099263562,6505.542278950486,-31704.429591230106,-38931.17325677553,-35905.21644416052,-43273.22313466348,-31456.392283009565,-44026.00753617377
14129.990533589189,6450.8922637572605,-31777.676257810148,-39025.38585965465,-35715.517188968326,-43357.57861823781,-31408.581901619662,-44050.97443473035
14190.966092463266,6362.848742347806,-31899.02387845801,-39140.40793662166,-35766.56857330425,-43466.18574454615,-31501.90043472057,-44158.15104939354
14075.631091073883,6383.702919924608,-31837.511877717006,-39066.08838630776,-35973.16574730465,-43397.141205923705,-31567.145176785612,-44153.92656969149
14008.82172689697,6477.334377447889,-31699.55691093885,-38936.04593706679,-35929.80336306136,-43267.99282646094,-31466.159995336533,-44044.80535326068
14068.813809015013,6412.156690616213,-31748.57428652934,-39008.91262399109,-35725.709584439945,-43321.77112362041,-31394.522654357275,-44043.41954510445
14151.068228610544,6301.873183473728,-31878.996715426056,-39132.87539874022,-35731.29752055377,-43443.38696520173,-31476.821777441717,-44141.02961314078
14065.036364202067,6329.075256475837,-31855.661494214713,-39097.80551168985,-35932.79849681837,-43410.73106655253,-31559.746749370905,-44164.70011051895
13942.146473186789,6383.9711408580715,-31738.0913183798,-38986.560879535784,-35958.68181689761,-43290.5680883608,-31494.189082883488,-44073.46028965239
13983.988938807124,6353.952748054594,-31752.016455175457,-39013.49473160443,-35760.08656741221,-43310.93052755958,-31403.865683539592,-44044.13480092702
14088.617454602416,6264.769287677919,-31864.423378041196,-39153.6401693392,-35701.189720772476,-43441.91175006769,-31457.778091165794,-44142.370717808095
14041.455273801717,6260.991842864972,-31857.136709348764,-39124.001756191465,-35880.629525259676,-43421.79518005791,-31540.367786928153,-44172.25500014484
13891.98915862908,6311.238564400503,-31738.04661489089,-38989.13133014814,-35955.41846220713,-43288.31056217082,-31496.290146862288,-44081.46221416738
13873.41485898672,6268.457325513044,-31727.071908363334,-39002.855301243704,-35783.37708513464,-43296.64776285264,-31409.923006286983,-44053.85780976508
13971.986052034623,6160.543103282822,-31858.656627971726,-39153.21548619455,-35694.10421778014,-43440.72710761155,-31447.22806778289,-44145.99170040985
13942.593508075895,6120.488777218911,-31893.726515022103,-39174.87432657174,-35862.68107446207,-43464.79993638992,-31551.923638811546,-44195.232593444896
13793.060337669891,6175.7646412568865,-31776.402208376196,-39038.17105748309,-35985.7944829219,-43333.751658648456,-31538.2443712049,-44128.31147054571
13772.027346137447,6196.484708366956,-31723.808553672858,-38997.22266164096,-35825.554826921805,-43281.158003945115,-31425.680986127973,-44046.9958242173
13874.59950144285,6105.334294478213,-31846.519630732495,-39135.4905528415,-35692.31607822372,-43413.21211018707,-31439.561419434718,-44118.72257217438
13879.382774756286,6039.6425175240665,-31911.54085535298,-39199.23772802803,-35833.66851015908,-43482.6142767208,-31557.668037136562,-44213.91865180954
13745.294659768899,6090.939771048996,-31814.243711739033,-39086.182604573085,-35998.62438423924,-43380.95854293806,-31577.695200168517,-44179.765186281824
13695.226752189012,6133.83276865873,-31742.025225403933,-39018.792095040335,-35888.877318963685,-43312.18222524908,-31478.60991699814,-44099.656534154004
13804.415023853187,6066.062279470239,-31834.583799193362,-39127.913311471144,-35713.21495928943,-43399.42108385814,-31447.809213138728,-44110.40772323701
13844.625812128284,5983.51728719679,-31939.27937022202,-39234.0617458894,-35813.99897503841,-43494.885384426765,-31558.80797610378,-44201.80400631476
13724.731054870017,6022.498729526846,-31871.48652928907,-39152.18730594961,-36012.52716929044,-43415.71550556606,-31610.77578196237,-44194.29382017777
13662.593205284264,6104.2167072554485,-31764.80165300389,-39030.213836457,-35935.61481661973,-43300.29109719886,-31500.738144008894,-44084.47969966885
13769.3004333139,6062.754221290854,-31812.321461715874,-39079.767653914416,-35732.437459520996,-43370.497926532975,-31439.42730896799,-44085.41847293598
13833.002905011524,5972.743746369332,-31936.17247774273,-39213.766361923976,-35782.058332211775,-43491.89025066975,-31539.831345061226,-44192.59508759917
13736.91275559816,5994.6261041910775,-31901.437866859185,-39167.27473345694,-35999.272584828446,-43445.108049524795,-31620.20821812251,-44216.37734369962
13646.946984165548,6073.170134207026,-31786.01345849198,-39038.90866505011,-35977.43493049561,-43317.09960902925,-31529.951874011982,-44105.15506329001
13722.317066468844,6048.4491048394575,-31813.550807660915,-39084.28270629438,-35776.112768186664,-43363.367720051734,-31449.32913176169,-44081.17164148947
13819.904782760714,5965.792353843732,-31942.22980049012,-39225.38926904074,-35770.74834951739,-43492.89607917024,-31526.37559489913,-44175.69716879096
13755.978793618537,5980.835077862153,-31917.776992056013,-39186.56428892187,-35976.898488628685,-43458.31793049788,-31611.178113362566,-44198.54065162428
13665.431876830087,6084.837744812697,-31784.493539869018,-39044.58600814176,-35999.87608192874,-43327.24730101196,-31541.708891595474,-44103.925717344966
13723.345246713789,6082.647273856077,-31800.251519710007,-39075.36436025672,-35805.43825691203,-43344.52519947591,-31451.050216084746,-44066.97828376035
13852.69479187665,6012.172223588494,-31919.207503701153,-39215.71096369159,-35741.53461951431,-43471.728977171064,-31495.038449172793,-44150.350290578644
13830.723027077083,6027.058485395728,-31921.576788613416,-39204.266870530475,-35924.5283513699,-43472.04190159344,-31587.082932839745,-44198.69711383547
13721.71356936855,6125.137940065616,-31795.37883941875,-39056.36537746971,-36005.95575642058,-43328.90133010165,-31540.010159016867,-44099.29890624272
13749.653249937684,6146.7744286983525,-31768.579097816837,-39046.70942386502,-35822.894969331624,-43314.75267586144,-31437.147431033547,-44038.345699113095
13886.22240855961,6072.611340595644,-31886.529253307493,-39184.64203889872,-35718.10999132514,-43449.24312224903,-31465.31062904723,-44123.77406642128
13891.787992928981,6057.210988665937,-31934.965483542146,-39215.308632291395,-35883.62465901669,-43484.737692444054,-31576.10822631219,-44201.64754410357
13780.565712519374,6148.271995576858,-31808.56636864738,-39069.3740927427,-36014.89645420271,-43361.423118284125,-31568.53098494184,-44131.73128744737
13788.433526567642,6211.37097017419,-31741.779356214927,-39011.75129553692,-35855.550867980826,-43299.93346928757,-31450.446718984454,-44042.1454956705
13926.32143811243,6155.782181713842,-31837.95891260611,-39136.11640168624,-35700.0274300608,-43416.229595688535,-31446.26694277131,-44099.231851009354
13966.152246731788,6120.801701641286,-31913.194884442677,-39198.85774837229,-35841.133992807154,-43486.88345991176,-31564.77589187335,-44188.77293929731
13871.2243880301,6204.441929393045,-31808.611072136293,-39070.33521775428,-36001.46305578507,-43376.84582195828,-31583.841929893726,-44151.24436035685
13838.657896358716,6266.177447578603,-31731.966940399045,-38987.63376326964,-35893.705295766034,-43298.011219264416,-31479.615745498628,-44060.47392612385
13965.548749631495,6222.189214490559,-31817.752935618515,-39093.13399709869,-35717.86412213613,-43387.06056917436,-31445.663445671016,-44072.186240218434
14038.482491789162,6176.368138357179,-31903.829503515903,-39184.50792843198,-35800.2526521984,-43477.87570689627,-31546.268647464356,-44166.55530530874
13949.120217456844,6246.4408572245675,-31816.81416235139,-39078.270087035904,-35982.32996253132,-43383.372531339235,-31583.819578149272,-44141.38724105206
13890.46924000612,6329.902271020684,-31707.312966264843,-38971.00406539489,-35917.264034421925,-43279.88395451116,-31485.762475223837,-44040.69263228091
13996.684729657738,6304.220116641536,-31770.680161795637,-39048.87754307718,-35717.14886631356,-43350.89544664567,-31427.357366962122,-44043.866579993555
14084.147105711354,6228.626516893687,-31887.69154401917,-39167.5429543904,-35756.77850923282,-43475.014683605994,-31521.65937681906,-44150.484401045374
14009.268761786076,6269.373747035712,-31833.086232314854,-39096.196186089066,-35954.68085464011,-43411.133397952726,-31590.748618930415,-44156.564075537215
13926.813176490448,6361.775858613952,-31709.726954666014,-38968.05363512679,-35944.82373533532,-43289.29403892685,-31511.55638832526,-44057.05410922219
14020.265820058086,6358.601910901298,-31729.105917108765,-39007.92914723506,-35733.130363599106,-43320.519425930914,-31423.378756449078,-44033.13774265501
14119.820489862024,6267.965587135028,-31876.090988646865,-39159.29516068639,-35733.264474065836,-43465.13521255675,-31510.304690635767,-44143.93533991997
14068.098553192443,6289.95970367905,-31861.718816962104,-39125.99106144799,-35941.5827323893,-43438.111953510284,-31601.902139413614,-44167.73994776487
13971.181389234232,6393.0683008513815,-31722.936835639102,-38980.63766725513,-35975.66914268365,-43301.40868442162,-31534.444574647496,-44064.564295359174
14031.15111960782,6399.125623598769,-31716.857161147258,-38991.47826331595,-35775.53162283082,-43309.87999557018,-31436.92391358899,-44026.83455071862
14148.363667531452,6310.635067300209,-31848.218363311098,-39141.346709888785,-35711.180950543996,-43447.186761759134,-31489.226995614412,-44125.29398504424
14113.293780481075,6296.285247359901,-31871.955915922634,-39147.3369774028,-35905.70818253853,-43460.28488400995,-31596.805941677805,-44180.16751768202
13996.796488380014,6381.735966412541,-31750.518888296952,-38998.4073040971,-35995.22691908204,-43326.48734170048,-31562.697179639006,-44102.83048186666
14023.506823004107,6413.475443539077,-31713.571454712328,-38971.71932121746,-35812.79198083782,-43291.015123249905,-31444.814079381715,-44025.24757686229
14128.56002194405,6315.8206720138405,-31846.564334221406,-39123.91234921364,-35708.677555165,-43426.26552894897,-31475.860652430136,-44094.47092944037
14126.32484749852,6282.538924519888,-31899.44856160266,-39163.787861321915,-35879.444882803546,-43471.28194228196,-31590.793322419326,-44176.79240426927
14008.933485619245,6369.911893595683,-31786.684010825637,-39022.94951950902,-36007.229805854535,-43344.212275053535,-31577.58344144624,-44108.820749380684
13994.896590101313,6410.6814754821635,-31727.42953627462,-38973.37335030715,-35862.882240162166,-43287.4164923926,-31466.249402314355,-44018.564405270154
14116.087748537988,6343.022745015949,-31824.68197639966,-39094.095122110266,-35717.43943899148,-43403.93613623812,-31459.968562122413,-44073.57204837466
14148.900109398379,6297.000503182471,-31896.74400052357,-39158.62460835274,-35838.58589393925,-43467.4597939801,-31563.032455805835,-44157.346386593155
14038.661305744805,6370.02365231796,-31792.987202762033,-39029.72209807898,-36002.08890462982,-43354.33761529179,-31578.67867692455,-44112.15115930452
14004.954875106201,6444.074981698392,-31691.018544556922,-38939.868085368646,-35885.72572299549,-43261.108489168706,-31459.36506502212,-44011.99299240029
14110.879792079902,6385.871039136772,-31781.029019478447,-39042.59670288524,-35704.475427207406,-43348.45910650004,-31417.567302890697,-44029.51676005325
14172.190627120808,6325.051942473882,-31877.02976191399,-39136.11640168624,-35781.32072464475,-43443.36461345728,-31516.71964129444,-44122.87999664307
14069.439657859763,6374.337538997834,-31805.191255234633,-39049.413984944105,-35977.92666887363,-43366.27344683093,-31571.079083809745,-44113.782836649756
14000.685691915238,6449.171179434202,-31695.645355659173,-38939.80103013528,-35917.599310588754,-43253.57595128727,-31473.93840240698,-44007.880271420516
14101.670873364315,6415.531804028965,-31747.009664417466,-39013.33826939324,-35714.377250001104,-43316.04907703985,-31407.576073119173,-44009.2884313212
14193.313025631074,6348.364811940767,-31851.12409009029,-39124.06881142483,-35730.202285075466,-43425.21499695957,-31485.494254290374,-44102.11522604409
14100.93326579729,6363.8992743372055,-31822.558560676407,-39071.40810148813,-35946.36600570274,-43386.233554629514,-31574.34243850022,-44121.58359546466
14007.614732696384,6454.222673681102,-31698.394620227176,-38937.81172487876,-35937.604121876255,-43259.72268101248,-31493.674992761018,-44022.29714659419
14083.185980699776,6444.633775309775,-31710.241044788487,-38974.37917880764,-35717.97588085841,-43284.35430340222,-31398.903596270517,-43982.51104146374
14172.414144565362,6339.49116939201,-31846.094947587844,-39125.74519225898,-35709.79514238777,-43434.4015639307,-31483.460245544942,-44098.91892658698
14110.388053701885,6335.043172245404,-31843.05511034192,-39099.83952043528,-35919.499208867455,-43420.74464806851,-31586.054752594802,-44146.6175492546
13998.361110491885,6417.230536607568,-31718.690004192595,-38957.682425699524,-35968.96361934705,-43287.64000983715,-31530.644778090096,-44052.00261497529
14048.853701216425,6424.628964022275,-31705.41306798614,-38967.45013802649,-35766.27800062633,-43284.48841386896,-31424.74221286085,-43997.4867102488
14167.60851950747,6339.044134502904,-31828.235903768054,-39109.89780544017,-35689.499758422346,-43420.05174399039,-31472.46318727293,-44092.459272439395
14138.171272059832,6325.946012252094,-31855.415625025707,-39119.531407300405,-35879.46723454801,-43442.93993031263,-31586.434732250542,-44162.55434305124
14026.144328849832,6422.259679110012,-31733.62096948874,-38972.68044622904,-35982.19585206459,-43307.39895193565,-31559.366769715165,-44078.10945249909
14033.140424864343,6436.341278116855,-31702.105009806757,-38956.83305941022,-35811.22735872595,-43284.577820846775,-31456.66050394303,-44016.753913969274
14155.9409089018,6354.444486432611,-31816.81416235139,-39093.64808722116,-35693.277203235295,-43414.486159621025,-31474.653658229552,-44092.593382906125
14161.953528160278,6322.9285267506275,-31873.520538034507,-39128.60621554926,-35858.47894650447,-43460.754270643505,-31588.40168576261,-44164.02955818529
14048.026686671577,6407.17225160268,-31751.368254586254,-38994.2051761395,-35994.109331859276,-43337.14912380566,-31583.327839771253,-44089.75471136031
14040.337686578952,6458.603615594342,-31686.0788090323,-38932.536713187306,-35847.839516143744,-43271.39029161815,-31462.65077145705,-44000.99593412828
14156.209129835264,6379.83606813384,-31784.605298591294,-39068.368264242206,-35699.915671338524,-43391.57562155433,-31459.029788855292,-44067.224152949355
14201.0020257237,6342.486303149021,-31858.20959308262,-39131.44488709508,-35810.06506801427,-43462.76592764448,-31563.658304650584,-44162.42023258451
14096.015882017122,6417.141129629747,-31763.52760356994,-39003.212929154986,-35982.486424742514,-43355.32109204782,-31584.266613038377,-44118.744923918835
14064.231701401675,6496.7356916350955,-31655.03223598388,-38898.09267498168,-35870.30301932133,-43249.73145124096,-31458.73921617737,-43997.64317245998
14167.13913287391,6438.285879884467,-31745.445042305597,-39009.47141760247,-35683.53184265278,-43340.01014709594,-31419.713070358404,-44011.70241972237
14221.073892244565,6361.932320825139,-31860.556526250428,-39120.60429103426,-35767.172070404544,-43453.37819497326,-31532.544676368798,-44122.56707222069
14119.46286195074,6405.473519024077,-31786.058161980887,-39027.37516491117,-35966.70609315707,-43382.50081330548,-31588.02170610687,-44121.762409420306
14050.440675072752,6485.42570894071,-31667.437454156574,-38911.2355007214,-35910.133827940685,-43265.46707933749,-31486.90241419106,-44014.80931220166
14140.920536627835,6454.692060314663,-31716.253664046966,-38978.8495276987,-35701.74851438386,-43319.334783474784,-31411.755849332316,-44001.510024250754
14214.994217752723,6363.07225979236,-31846.83255515487,-39119.62081427823,-35737.57836074571,-43452.14884902821,-31511.2881673918,-44118.29788902973
14137.791292404092,6394.856440407806,-31808.096982013823,-39043.98251104147,-35939.30285445486,-43395.10719717827,-31581.24912753691,-44119.59429020814
14038.884823189357,6481.268284472023,-31686.41408519913,-38912.666012366535,-35940.42044167763,-43269.04335845034,-31502.414524843043,-44021.783056471715
14102.631998375893,6459.832961539383,-31699.64631791667,-38960.364635034166,-35730.9845961314,-43303.97913503399,-31416.337956945656,-44003.52168125173
14200.800860023603,6359.540684168421,-31846.20670631012,-39107.26029959444,-35704.8777586076,-43441.50941866749,-31486.52243453532,-44105.64680166803
14145.03325760761,6361.172361513658,-31839.702348673625,-39088.88716565218,-35914.69358380957,-43424.767962070466,-31584.847758394215,-44131.194845580445
14041.075294145978,6465.778525564495,-31708.251739531966,-38941.92444585853,-35966.6390379237,-43285.985980747464,-31525.369766398642,-44034.031812433226
14078.290948664064,6465.555008119943,-31699.26633826093,-38930.05566955276,-35767.77556750483,-43278.922829499585,-31419.109573258113,-43980.65584667395
14185.288749371619,6358.423096945656,-31838.137726561756,-39093.58103198779,-35691.86904333461,-43426.019659759964,-31469.04337037127,-44083.160946745986
14155.42681877933,6333.836178044818,-31868.625505998793,-39115.50809329845,-35877.72379848049,-43446.4044507032,-31577.404627490596,-44146.416383554504
14022.769215437082,6395.303475296912,-31749.33424584082,-38982.314048089276,-35981.659410197666,-43313.36686770521,-31550.42607193304,-44059.95983600138
14026.390198038842,6426.439455323155,-31715.314890779842,-38947.825306394734,-35811.83085582624,-43279.28045741087,-31439.673178156994,-43990.93764912339
14127.107158554454,6318.972267982039,-31836.68486317216,-39089.043627863364,-35699.24511900486,-43416.07313347735,-31456.772262665305,-44070.17458321746
14122.726216641215,6283.365939064734,-31899.8285412584,-39155.56241936236,-35853.293341790835,-43471.84073589334,-31566.67579015205,-44150.283235345276
13994.069575556467,6344.006221771982,-31791.28847018343,-39006.632746056646,-35997.95383190559,-43350.448411756566,-31565.91583084057,-44088.77123460427
13962.978299019134,6384.999321103016,-31696.338259737287,-38922.8360560937,-35849.38178651116,-43271.52440208488,-31442.154221791534,-43990.17768981191
14055.067486175,6291.233753113002,-31797.614013864284,-39049.50339192193,-35681.743703096356,-43380.846784215784,-31422.060003526214,-44036.95989095687
14061.996526956145,6192.41669087609,-31889.770256253512,-39139.60327382127,-35804.11950398916,-43468.64443643623,-31535.897438037093,-44139.04030788426
13917.17957463021,6229.542938416354,-31805.191255234633,-39018.45681887351,-35981.525299730936,-43372.71074923405,-31566.228755262942,-44112.19586279343
13849.78906509746,6281.398985552667,-31701.613271428738,-38914.11887575613,-35884.58578402827,-43274.251314908426,-31454.537088219775,-44011.925937166925
13928.064874179945,6193.310760654302,-31786.169920703167,-39020.133199707656,-35693.50072067985,-43349.55434197836,-31404.558587617707,-44006.9862016423
13975.741145103115,6103.993189810895,-31878.952011937145,-39129.16500916064,-35760.399491834585,-43452.77469787296,-31502.973318454424,-44105.22211852338
13856.606347156328,6130.5470622238,-31820.68101414216,-39043.98251104147,-35961.676950654626,-43387.59701104129,-31567.39104597462,-44117.850854140626
13759.398610520198,6196.305894411314,-31714.21965530153,-38922.34431771569,-35925.26595893693,-43268.149288672124,-31473.044332628768,-44014.921070923934
13823.391654895742,6134.145693081105,-31769.76374027297,-39010.544301336326,-35728.61531121914,-43332.85758887024,-31407.576073119173,-44001.89000390649
13884.926007381202,6018.944802158452,-31906.936395995188,-39156.21061995156,-35762.7911284913,-43472.22071554908,-31508.784772012805,-44114.29692677223
13801.531648818453,6034.05458141024,-31877.968535181113,-39107.103837383256,-35968.3377705023,-43432.16638948517,-31593.83315966525,-44140.09083987366
13699.920618524626,6117.4265882285345,-31739.9912166585,-38964.544411247305,-35974.998590349984,-43297.60888786422,-31513.925673237525,-44036.75872525677
13774.061354882879,6120.35466675218,-31745.2438766055,-38991.9029464606,-35763.57343954724,-43316.92079507361,-31415.98032903437,-44005.55568999716
13872.163161297221,6019.123616114094,-31890.619622542814,-39153.59546585029,-35730.5822647312,-43468.06329108039,-31489.09288514768,-44123.72936293237
13815.92617224767,6012.932182899975,-31900.230872658598,-39141.14554418869,-35939.839296321785,-43465.69400616813,-31592.045020108824,-44164.63305528558
13707.699025595073,6111.056341058772,-31770.836624006824,-38993.489920316926,-35998.17734935014,-43317.39018170717,-31531.225923445934,-44051.10854519708
13728.508499682965,6104.283762488814,-31767.95324897209,-39005.29164138933,-35813.99897503841,-43324.2745189994,-31432.945303075947,-44013.57996625662
13854.706448877627,6023.124578371594,-31876.135692135776,-39138.44098310959,-35726.44719200697,-43446.359747214294,-31464.349504035654,-44080.83636532263
13850.97370755359,6013.066293366706,-31898.040401701975,-39152.813154794356,-35900.18730165807,-43464.35290150081,-31563.9488773285,-44133.38531653706
13743.506520212475,6112.755073637375,-31785.029981735945,-39008.53264433535,-36012.03543091243,-43336.478571472,-31541.86535380666,-44057.45644062239
13765.00889837848,6162.241835861425,-31725.842562418293,-38970.42292003905,-35847.75010916592,-43295.53017562988,-31432.252398997833,-43983.695683919876
13896.571266242418,6090.4256809265235,-31843.34568301984,-39104.75690421544,-35714.73487791239,-43424.410334159176,-31443.472974714397,-44054.03662372072
13928.914240469247,6065.548189347767,-31900.342631380874,-39155.13773621771,-35857.65193195963,-43475.305256283915,-31549.77787134384,-44135.57578749368
13820.955314750114,6150.417763044568,-31795.8035225634,-39031.48788589095,-36012.974204179554,-43358.94207464958,-31557.355112714187,-44079.875240311056
13798.245942383523,6207.682932339065,-31725.306120551366,-38959.76113793387,-35886.798606729346,-43290.34457091625,-31445.3728729931,-43990.02122760072
13933.473996338129,6160.7442689829195,-31810.01923203698,-39066.84834561925,-35707.69407840897,-43385.02656042893,-31417.544951146243,-44022.207739616366
13995.745956390616,6119.214727784959,-31886.350439351852,-39142.17372443363,-35808.41103892458,-43466.25279977951,-31522.70990880846,-44109.938336603445
13892.994987129568,6188.616894318688,-31805.9065110572,-39040.7638598399,-35999.38434355072,-43377.494022547486,-31564.932354084536,-44083.67503686846
13847.196262740645,6270.111354602737,-31704.36253599674,-38938.99636733489,-35913.79951403136,-43279.92865800008,-31460.639114456073,-43980.544087951675
13961.301918184987,6235.510854185922,-31779.307935155386,-39034.88535104816,-35718.55702621425,-43363.97121715203,-31413.32047144419,-44000.32538179462
14041.030590657067,6171.830734232752,-31883.8246922284,-39140.38558487721,-35774.74931177489,-43469.89613412573,-31508.85182724617,-44110.40772323701
13956.76451406056,6221.250441223436,-31827.565351434394,-39064.68022640708,-35979.80421540788,-43401.969182726054,-31570.453234964996,-44103.72455164487
13893.710242952138,6318.793454026396,-31704.027259829913,-38933.31902424324,-35942.00741553395,-43281.06859696729,-31477.917012920025,-43996.99497187078
13993.667244156271,6308.332837621312,-31724.94849264008,-38982.82813821175,-35724.033203605795,-43323.4251527101,-31389.91819499948,-43979.09122456208
14072.50184685014,6207.146490472137,-31876.2250991136,-39145.77235529094,-35749.87182019613,-43471.93014287116,-31491.84214971568,-44097.913098086494
14007.122994318366,6234.862653596718,-31852.509898246517,-39097.26906982292,-35963.04040706639,-43432.7028313521,-31583.35019151571,-44123.55054897673
13927.215507890643,6343.536835138421,-31712.006832600455,-38936.18004753352,-35972.11521531525,-43293.607925606724,-31499.173521897024,-44023.14651288349
13992.147325533311,6341.480474648532,-31717.0359751029,-38955.40254776509,-35762.29939011329,-43306.393123435155,-31399.864721282094,-43973.391529725974
14107.325864711507,6253.414601494623,-31847.905438888723,-39102.27586058091,-35716.344203513174,-43434.64743311971,-31459.163899322022,-44057.32233015565
14071.563073583016,6257.281453285391,-31849.760633678514,-39090.809415675336,-35912.860740764234,-43433.12751449675,-31560.52906042684,-44107.39023773554
13956.697458827193,6343.514483393966,-31728.56947524184,-38954.37436752014,-35990.08601785732,-43307.24248972446,-31519.848885518182,-44027.08041990762
13997.511744202584,6367.520256938966,-31702.440285973586,-38943.46671622595,-35796.47520738545,-43290.94806801654,-31406.838465552148,-43962.3274162206
14120.960428829245,6290.987883923994,-31826.425412467175,-39079.70059868105,-35704.0283923183,-43421.97399401355,-31444.478803214886,-44050.169771929955
14121.78744337409,6285.8246309548185,-31846.609037710317,-39090.54119474187,-35869.00661814292,-43430.154732484196,-31539.406661916575,-44092.30281022821
13992.90728484479,6357.551378911899,-31735.990254401,-38968.61242873817,-35998.93730866162,-43320.608832908736,-31531.42708914603,-44034.925882211435
14002.429127982752,6405.629981235264,-31673.49477690396,-38906.251061707866,-35828.14762927862,-43265.75765201541,-31410.66061385401,-43955.77835509519
14123.664989908337,6329.25407043148,-31792.473112639564,-39048.16228725461,-35688.382171199584,-43393.7437407665,-31413.834561566662,-44022.18538787191
14133.969144102233,6278.202686095558,-31866.144462364253,-39108.31083158384,-35843.011539341394,-43464.57641894536,-31535.450403147985,-44124.22110131039
14033.54275626454,6362.625224903253,-31748.70839699607,-38966.04197812581,-35988.588450978816,-43331.360021991735,-31528.968397255947,-44046.66054805047
14000.216305281676,6415.17417611768,-31678.725085106504,-38895.8798522806,-35867.486699519955,-43252.12308789767,-31420.98711979236,-43944.89305554546
14128.157690543854,6365.30743423789,-31752.150565642187,-39006.409228612094,-35684.26945021981,-43348.79438266688,-31390.097008955123,-43982.04165483018
14176.169237633854,6302.566087551843,-31848.44188075565,-39106.14271237168,-35788.47328287045,-43445.26451173598,-31503.822684743725,-44086.446653180916
14057.861454231914,6349.594157885809,-31783.599470090805,-39007.750333279415,-35988.70020970109,-43366.60872299776,-31555.05288303529,-44074.46611815287
14010.073424586466,6432.787350748462,-31669.493814646463,-38888.637887077086,-35895.806359744834,-43252.570122786776,-31437.527410689287,-43963.28854123218
14116.490079938183,6391.1907543171355,-31728.144792097188,-38970.46762352796,-35693.99245905787,-43323.20163526555,-31376.753017515304,-43966.82011685611
14190.13907791842,6318.368770881745,-31845.73731967656,-39090.42943601959,-35746.92138992803,-43434.93800579763,-31474.676009974006,-44068.98994076133
14094.898294794357,6350.532931152932,-31803.336060444843,-39019.283833418354,-35956.87132559673,-43375.72823473552,-31548.213249231965,-44069.3028651837
14023.037436370545,6444.812589265417,-31667.1245297342,-38886.246250420365,-35922.44963913556,-43248.01036691789,-31450.491422473366,-43962.774451109704
14105.135393754888,6421.566775031898,-31700.339221994785,-38947.60178895018,-35717.10416282465,-43295.23960295196,-31371.880337224047,-43951.28565445968
14196.911656488379,6328.427055886634,-31830.40402298022,-39083.90272663865,-35718.445267491974,-43422.868063791764,-31448.613875939118,-44043.91128348247
14126.056626565056,6343.514483393966,-31814.847208839325,-39050.71038612251,-35931.77031657342,-43404.65139206069,-31546.0451300198,-44089.01710379328
14019.81878516898,6429.836920480361,-31692.47140794652,-38911.01198327685,-35964.940305345095,-43277.89464925464,-31485.51660603483,-43993.64221020248
14072.07716370549,6421.678533754174,-31694.483064947497,-38933.162562032056,-35763.55108780278,-43282.54381210134,-31390.16406418849,-43936.08646823007
14186.875723227946,6333.098570477792,-31820.815124608893,-39080.50526148144,-35709.281052265294,-43416.90014802219,-31444.523506703797,-44031.014326931756
14155.695039712793,6337.0101257574715,-31827.87827585677,-39063.85321186223,-35900.142598169165,-43415.71550556606,-31540.926580539537,-44082.93742930143
14043.511634291606,6431.200376892135,-31696.60648067075,-38916.21993973493,-35977.01024735096,-43276.75471028742,-31496.536016051297,-43990.42355900092
14073.798248028548,6452.456885869132,-31666.453977400542,-38905.200529718466,-35788.47328287045,-43260.259122879404,-31391.92985200046,-43936.68996533036
14192.486011086228,6365.799172615907,-31796.80935106389,-39048.654025632626,-35691.19849100095,-43400.60572631428,-31428.966692562903,-44033.96475719986
14176.169237633854,6330.483416376522,-31847.704273188625,-39080.5723167148,-35873.27580133388,-43436.5026279095,-31547.788566087314,-44102.025819066264
14054.553396052528,6416.64939125173,-31722.66861470564,-38942.594998192195,-35990.71186670207,-43305.700219357044,-31531.42708914603,-44022.25244310527
14058.822579243491,6462.068135984914,-31661.40248315364,-38885.79921553126,-35832.103888047204,-43250.93844544154,-31414.59452087814,-43941.22736945479
14176.683327756326,6383.099422824314,-31769.160243172675,-39012.86888275968,-35687.93513631048,-43372.040196900394,-31415.689756356453,-44006.76268419775
14192.910694230879,6325.20840468507,-31848.285418544463,-39084.103892338746,-35830.13693453514,-43441.91175006769,-31532.231751946423,-44094.158005018
14077.754506797137,6394.923495641172,-31743.031053904422,-38964.14207984711,-35993.997573137,-43331.27061501391,-31545.95572304198,-44043.48660033782
14045.903270948324,6459.676499328197,-31649.041968469857,-38885.37453238661,-35864.692731463045,-43243.696480238024,-31421.612968637106,-43941.65205259944
14158.444304280794,6392.576562473365,-31748.395472573695,-38995.81450174028,-35694.99828755835,-43352.34831003527,-31397.67425032547,-43989.618896200525
14208.311046160585,6329.187015198114,-31845.625560954282,-39094.83272967729,-35791.53547186083,-43450.4054129607,-31510.08117319121,-44096.14731027452
14096.038233761577,6380.081937322848,-31766.992123960514,-39001.447141343015,-35982.37466602024,-43364.4853072745,-31553.53296441233,-44069.34756867261
14032.1122446194,6452.3227754024,-31661.044855242355,-38893.55527085725,-35909.95501398504,-43256.32521585527,-31443.785899136772,-43963.757927865736
14129.856423122457,6408.64746673673,-31717.617120458737,-38974.87091718565,-35704.92246209651,-43320.184149764085,-31377.267107637777,-43968.49649769026
14213.027264240654,6336.674849590641,-31826.02308106698,-39097.35847680074,-35741.04288113629,-43433.52984589694,-31466.38351278109,-44071.76155707378
14116.601838660461,6364.1898470151245,-31795.177673718656,-39031.15260972412,-35955.77609011842,-43387.73112150802,-31543.832307318728,-44094.20270850691
14037.54371852204,6453.507417858532,-31654.495794116952,-38894.06936097972,-35925.511828125935,-43250.536114041344,-31441.975407835893,-43978.95711409535
14098.720443096214,6413.766016216996,-31703.580224940804,-38964.87968741413,-35726.134267584595,-43308.56124264732,-31373.06497968018,-43976.900753605456
14198.744499533714,6329.745808809496,-31832.706252659114,-39096.86673842272,-35722.11095358264,-43431.13820924023,-31446.870439871604,-44073.41558616347
14124.715521897737,6329.768160553952,-31832.102755558823,-39070.78225264338,-35934.050194507865,-43411.08869446382,-31544.43580441902,-44113.06758082719
14016.086043844945,6418.750455230529,-31704.630756930204,-38929.63098640811,-35969.07537806933,-43272.17260267408,-31476.710018719437,-44014.47403603483
14064.030535701579,6416.917612185194,-31712.498570978474,-38952.92150413054,-35769.7425210169,-43279.32516089978,-31376.440093092933,-43967.870648845514
14180.013737680167,6336.585442612821,-31833.0638805704,-39086.115549339724,-35700.51916843881,-43405.5454618389,-31421.836486081662,-44064.09490872561
14144.407408762861,6323.174395939636,-31849.760633678514,-39089.22244181901,-35897.99683070145,-43419.850578290294,-31529.68365307852,-44128.87026415709
14028.960648651202,6412.894298183239,-31717.773582669925,-38944.271379026344,-35984.83335791032,-43281.716797556495,-31490.389286326088,-44046.727603283834
14051.222986128687,6432.60853679282,-31687.419913699618,-38925.02652705032,-35792.675410828044,-43245.32815758326,-31371.276840123755,-43966.686006389384
14168.56964451905,6346.867245062262,-31812.366165204785,-39067.36243574172,-35677.98861002787,-43371.92843817812,-31389.64997406602,-44038.01042294627
14167.206188107275,6320.045151715894,-31842.25044754153,-39105.87449143821,-35843.436222486045,-43414.888491021215,-31499.62055678613,-44122.50001698733
14052.49703556264,6403.283048067457,-31721.953358883067,-38965.84081242571,-35968.5389362024,-43282.90144001263,-31484.488425789885,-44056.58472258863
14052.050000673533,6461.576397606897,-31650.2713144149,-38894.47169237992,-35804.38772492263,-43213.275756034345,-31359.363360329076,-43959.89107607497
14167.250891596186,6380.506620467499,-31763.885231481225,-39032.091382991246,-35657.38030164007,-43335.85272262725,-31357.932848683937,-44020.799579715684
14179.90197895789,6313.116110934748,-31855.527383747984,-39123.241796879985,-35801.61610861017,-43419.20237770109,-31484.62253625662,-44122.47766524287
14073.172399183799,6390.162574072191,-31754.184574387622,-39003.257632643894,-35965.90143035667,-43308.60594613623,-31502.347469609675,-44076.72364434286
14033.185128353254,6450.556987590431,-31661.670704087104,-38921.9866898044,-35855.41675751409,-43221.702363694,-31389.31469789919,-43980.968771096326
14139.333562771508,6384.306417024901,-31749.468356307552,-39032.493714391436,-35678.43564491697,-43325.79443762236,-31361.822052219162,-44023.68295475042
14188.775621506647,6312.15498592317,-31861.45059602864,-39140.720861044036,-35778.929087988035,-43433.32868019685,-31482.923803678015,-44137.632147983575
14092.819582560014,6370.113059295781,-31780.157301444688,-39043.35666219672,-35970.37177924774,-43341.17243780762,-31524.207475686966,-44104.01512432279
14025.116148604888,6444.454961354132,-31663.525898876895,-38925.02652705032,-35897.415685345615,-43225.81508467378,-31416.02503252328,-43992.904602635455
14122.79327187458,6407.529879513965,-31723.115649594743,-39000.53071982035,-35696.04881954775,-43291.28334418337,-31353.73072072634,-43999.52071899423
14202.09726120201,6325.946012252094,-31842.384558008263,-39126.16987540363,-35730.9845961314,-43409.45701711858,-31446.244591026854,-44099.812996365195
14120.535745684594,6359.741849868518,-31794.037734751433,-39056.45478444753,-35936.64299686468,-43354.87405715872,-31520.742955296395,-44110.38537149255
14034.526233020573,6451.227539924091,-31671.237250713977,-38920.66793688154,-35922.91902576912,-43225.435105018034,-31433.12411703159,-44002.22528007332
14105.537725155084,6427.601746034831,-31703.401410985163,-38972.14400436211,-35719.562854714735,-43265.444727593036,-31354.73654922683,-43981.12523330751
14209.607447338993,6345.123808994747,-31836.90838061671,-39116.46921831003,-35711.248005777365,-43402.70679029307,-31436.096899044147,-44088.83828983764
14155.069190868044,6358.937187068127,-31814.623691394772,-39078.6724184361,-35912.860740764234,-43377.76224348095,-31526.733222810417,-44119.862511141604
14048.674887260782,6440.766923519007,-31675.305268204844,-38931.061498053255,-35945.67310162462,-43238.64498599112,-31458.672160944006,-44016.530396524715
