Fp1,Fp2,C3,C4,P7,P8,O1,O2
14375.189170263908,5024.47098785293,-27091.565977521655,-34061.19752659769,-38320.70241221219,-37700.106227410586,-26884.65587909888,-36126.655176479246
14281.781230185179,5091.0791863297445,-27016.799392318655,-33962.5145748275,-38495.157777685854,-37612.04035425668,-26928.152373808905,-36098.44727497664
14283.63642497497,5121.097579133222,-26969.033714417663,-33928.02583313297,-38346.07164216896,-37571.449586325834,-26817.600645732957,-36027.0558031864
14365.689678870402,5056.389278935108,-27045.029645565708,-34027.759316892545,-38155.254799754,-37658.64374144599,-26764.67171486279,-36047.61940808528
14382.788763378712,5028.382543132609,-27100.88665495952,-34069.98176216862,-38285.00667631706,-37708.44342809241,-26872.518881859647,-36124.15178110025
14299.819087960612,5097.494136988418,-27038.72645362931,-33977.222022679096,-38499.7398852992,-37631.28520623269,-26946.056121117606,-36117.60271997484
14277.020308616198,5142.77877125487,-26971.67122026339,-33917.319347538876,-38398.978221294674,-37569.68379851387,-26850.524765315626,-36040.48920160403
14352.368039175039,5084.775994393349,-27037.050072795162,-34006.12282825981,-38186.83781466935,-37646.28322676221,-26776.071104534996,-36045.630102828756
14398.144411819509,5050.6895840990055,-27100.707841003878,-34061.64456148679,-38250.29441717797,-37703.1460646565,-26852.558774061057,-36112.75239142805
14335.134844199998,5106.233669070443,-27041.855697853054,-33977.13261570127,-38469.18505062879,-37634.41445045644,-26935.28258029015,-36112.797094916954
14289.760802955725,5160.324890652286,-26961.56823176959,-33899.01326882998,-38425.263872774114,-37560.139603631455,-26857.9902479637,-36039.259855658995
14351.7868938192,5110.145224350122,-27006.294072424662,-33970.650609809236,-38198.37131480829,-37618.14238049297,-26760.20136597173,-36026.407602597195
14416.070510872665,5058.043308024801,-27081.26182332776,-34052.79327068249,-38205.389762567254,-37694.31712559666,-26816.30424455455,-36090.266536506
14347.338896672594,5088.352273506198,-27061.74875041828,-34007.486284671584,-38446.69919570675,-37659.31429377965,-26928.398242997915,-36123.3247665554
14279.814276673113,5148.7243352799815,-26980.589566301056,-33920.98503362954,-38470.347341340464,-37575.29408637215,-26883.627698853936,-36063.08681524835
14337.92881225691,5125.925555935569,-26987.205682659827,-33957.41837709169,-38232.61418731382,-37599.36691515052,-26764.20232822923,-36026.36289910828
14412.717749204368,5060.949034803991,-27070.577689478123,-34052.994436382585,-38172.01860809548,-37692.10430289558,-26781.994316815653,-36087.494920193545
14370.003565550276,5079.880962357636,-27063.715703930346,-34019.55622667745,-38393.680857858766,-37669.88666890701,-26891.51786464666,-36127.95157765765
14297.941541426366,5157.799143528837,-26964.451606804327,-33912.401963758704,-38464.71470173773,-37566.8674787125,-26863.913460244356,-36055.64368434473
14333.749036043768,5149.998384713935,-26957.29904857863,-33927.98112964405,-38244.66177757523,-37570.622571780994,-26739.034263972553,-35998.33381156133
14412.538935248725,5072.080203542734,-27049.723511901324,-34036.61060769685,-38141.284959469434,-37670.534869496216,-26743.191688441242,-36056.3589401673
14385.269807013252,5068.839200596714,-27069.72832318882,-34038.06347108644,-38345.93753170223,-37679.07323587814,-26864.85223351148,-36121.402516532245
14304.222381618309,5142.376439854675,-26980.075476178587,-33931.37859480126,-38473.789509986585,-37581.530223075184,-26875.201091194285,-36083.449254447136
14312.02314043321,5141.996460198934,-26955.890888677943,-33925.343623798326,-38288.180624029716,-37566.37574033448,-26754.322857179985,-36024.015965940474
14391.081260571631,5068.101593029689,-27044.001465320765,-34035.15774430725,-38133.327738443346,-37659.85073564658,-26722.650435286814,-36061.79041406994
14384.867475613055,5048.9908515204015,-27089.375506565037,-34064.37147431034,-38310.06298185146,-37692.73015174033,-26846.724968758223,-36140.44620280817
14298.008596659733,5111.1510528506105,-27016.128839984995,-33972.23758366556,-38493.45904510725,-37610.34162167807,-26898.75982985018,-36127.59394974637
14294.857000691534,5139.671878775583,-26962.61876375899,-33935.33485356985,-38346.339863102425,-37567.00158917923,-26789.39274423036,-36059.264666946496
14376.507923186771,5073.756584376882,-27036.49127918378,-34035.60477919636,-38154.785413120444,-37652.40760474296,-26734.698025548223,-36076.721379366085
14395.261036784774,5037.8373310372035,-27100.35021309259,-34090.813588000965,-38282.34681872688,-37708.10815192558,-26840.533535544102,-36156.293589626985
14325.12126268402,5111.463977272985,-27026.79062209018,-33991.34832517485,-38484.80892000305,-37621.13751424998,-26901.46439092927,-36143.77661273201
14291.571294256604,5153.395849871141,-26964.04927540413,-33936.027757647964,-38390.104578745915,-37560.765452476204,-26806.938863627776,-36073.10039676433
14371.32231847314,5098.857593400192,-27019.01221501973,-34023.557188934945,-38175.39372150823,-37632.80512485566,-26728.595999311925,-36073.458024675616
14420.652618486003,5062.625415638139,-27081.574747750135,-34084.08571291992,-38234.11175419232,-37690.6961429949,-26803.58610195948,-36135.14883937226
14338.129977957009,5103.372645780164,-27043.532078687203,-34023.26661625703,-38469.38621632889,-37640.89645634848,-26903.677213630344,-36158.372301861324
14292.554771012638,5165.130515710177,-26957.634324745457,-33939.71579548309,-38426.381459996875,-37558.26205709721,-26822.853305679957,-36082.75635036902
14365.779085848224,5130.909994949102,-26988.54678732715,-33999.797284578955,-38187.88834665875,-37604.55251986415,-26717.353071850906,-36056.47069888958
14419.691493474424,5065.531142417329,-27073.55047149068,-34089.763056011565,-38193.7668554505,-37687.76806447125,-26777.59102315796,-36129.158571858236
14354.334992687107,5090.565096207273,-27052.539831702692,-34041.84091589939,-38429.17542805379,-37648.45134597437,-26889.305041945583,-36159.02050245053
14286.676262220892,5154.714602794004,-26964.205737615317,-33945.8625252083,-38452.42124228731,-37557.904429185925,-26845.920305957832,-36092.30054525143
14336.297134911674,5128.697172248027,-26981.997726201742,-33987.74969431754,-38225.104001176835,-37586.60406906653,-26731.881705746855,-36057.498879134524
14407.08510960163,5054.422325423041,-27070.242413311295,-34090.34420136741,-38166.4083202372,-37679.76613995626,-26763.554127640025,-36122.6765659662
14361.286385212707,5068.950959318991,-27072.07525635663,-34067.07603538943,-38396.20660498221,-37666.24333456079,-26888.61213786747,-36170.01756072254
14282.54118949666,5143.918710222091,-26985.90928148142,-33962.469871338595,-38479.80212924506,-37569.080301413574,-26874.93287026082,-36105.8233506469
14309.631503776493,5134.374515339675,-26982.33300236857,-33984.53104311598,-38269.33810345389,-37584.815929510114,-26763.576479384483,-36070.03820777395
14392.355310005583,5057.886845813614,-27069.281288299717,-34089.02544844454,-38153.801936364405,-37681.62133474604,-26761.788339828057,-36123.95061540015
14372.283443484717,5056.0316510238235,-27090.761314721265,-34086.45499783218,-38353.78299400604,-37682.44834929089,-26879.60438485198,-36169.39171187779
14283.010576130222,5124.293878590332,-27012.507857383236,-33985.469816383105,-38495.738923041696,-37589.979182479285,-26901.12911476244,-36122.20717933264
14290.87839017849,5125.612631513194,-26982.712982024314,-33977.4678918681,-38318.10960985537,-37577.84218524006,-26792.790209387567,-36069.92644905167
14376.776144120235,5054.444677167497,-27067.224927809828,-34084.59980304239,-38155.67948289865,-37673.73116895332,-26760.38017992737,-36108.03617334797
14368.930681816422,5029.768351288838,-27114.252998143795,-34115.55696911299,-38327.58674950442,-37710.432733348935,-26885.058210499075,-36180.29936317198
14295.482849536284,5113.319172062776,-27018.878104552998,-33994.745790332054,-38495.247184663676,-37604.44076114187,-26915.7024521473,-36140.5803132749
14293.046509390655,5151.317137636797,-26958.304877079117,-33945.39313857474,-38343.5011915566,-37554.79753670663,-26795.517122211117,-36063.42209141518
14373.535141174216,5081.534991447329,-27032.177392503905,-34045.2830845455,-38145.062404282384,-37640.49412494828,-26731.367615624386,-36077.99542880004
14389.002548337288,5037.144426959089,-27100.484323559325,-34102.99528872911,-38264.823051073916,-37701.4473320779,-26837.136070386896,-36152.76201400304
14302.54600078416,5092.353235763698,-27041.229849008305,-34016.31522373143,-38479.89153622288,-37629.45236318736,-26915.836562614033,-36150.34802560187
14269.376012012484,5135.045067673334,-26974.979278442777,-33957.373673602786,-38397.2124334827,-37570.60022003653,-26831.6822447398,-36081.99639105754
14350.35638217406,5082.831392625737,-27030.836287836588,-34042.06443334394,-38180.735788433056,-37643.601017427565,-26756.9156595368,-36087.226699260085
14393.092917572609,5032.115284456645,-27105.111134661573,-34114.77465805705,-38240.973739740104,-37716.579463074144,-26838.208954120753,-36166.843613009885
14311.73256775529,5071.789630864815,-27060.765273662244,-34040.410404254246,-38467.59807677246,-37652.765232654245,-26927.52652496416,-36171.87275551233
14258.848340374034,5130.105332148711,-26969.63721151796,-33949.8634874658,-38431.835285643974,-37564.09586240004,-26851.39648334938,-36086.26557424851
14336.811225034146,5101.360988779186,-26998.38155488748,-34004.96053754813,-38192.49280601654,-37608.5758338661,-26746.276229176074,-36063.53385013746
14396.378624007539,5041.681831083516,-27085.419247796446,-34097.56381482647,-38191.39757053823,-37699.79330298821,-26805.195427560262,-36139.77565047451
14337.41472213444,5074.7624128773705,-27061.16760506244,-34043.36083452235,-38426.53792220807,-37661.34830252508,-26912.975539323754,-36170.755168289565
14266.179712555375,5142.219977643487,-26971.49240630775,-33947.53890604245,-38453.53882951008,-37567.02394092369,-26867.959125990765,-36097.10617030933
14314.124204412008,5118.214204098488,-26985.68576403687,-33990.76717981901,-38228.45676284513,-37600.752723306745,-26760.76015958311,-36064.629085615765
14394.836353640123,5049.303775942776,-27072.656401712466,-34087.9972681996,-38165.98363709255,-37695.36765758606,-26787.24697676265,-36130.45497303665
14353.038591508699,5060.569055148251,-27071.471759256336,-34063.92443942123,-38389.72459909017,-37679.78849170071,-26902.783143852135,-36172.31979040144
14269.39836375694,5124.606803012705,-26985.261080892218,-33961.30758062692,-38480.785606001096,-37580.703208530336,-26892.546044891602,-36115.166379829214
14303.574181029104,5120.091750632733,-26969.10076965103,-33968.30367664143,-38260.62092311632,-37576.970467206294,-26767.53273815307,-36056.537754122946
14382.498190700793,5041.681831083516,-27069.460102255358,-34081.76113149657,-38149.28688398444,-37681.50957602377,-26764.53760439606,-36107.1197518253
14362.135751502008,5038.709049070961,-27091.565977521655,-34083.5939745419,-38350.78786024903,-37693.71362849636,-26888.567434378558,-36168.72115954413
14282.742355196759,5114.660276730094,-26992.61480481801,-33968.66130455271,-38486.99939095967,-37592.81785402511,-26905.33124272004,-36123.704746211144
14283.725831952792,5119.264736087887,-26964.071627148587,-33955.92081021319,-38308.27484229503,-37572.231897381775,-26788.744543641158,-36057.498879134524
14371.232911495319,5049.683755598517,-27046.661322910946,-34060.01288414155,-38143.43072693714,-37665.21515431585,-26756.133348480864,-36093.015801074005
14373.937472574411,5026.549700087274,-27088.012050153262,-34089.15955891128,-38299.64706893529,-37700.150930899494,-26867.22151842374,-36161.36743561833
14291.30307332314,5103.015017868879,-27003.38834564547,-33978.94310700215,-38486.90998398185,-37603.43493264138,-26917.401184725906,-36132.42192654871
14280.104849351032,5136.721448507482,-26949.185365341353,-33935.58072275886,-38348.999720692605,-37556.63037975197,-26809.844590406967,-36053.34145466584
14359.855873567567,5066.849895340192,-27023.571970888614,-34031.112078560844,-38148.3034072284,-37645.32210175063,-26749.941915266743,-36069.63587637376
14388.80138263719,5033.545796101785,-27081.8429686836,-34082.25286987458,-38255.301207935954,-37700.307393110685,-26846.25558212466,-36143.57544703191
14309.206820631842,5097.963523621979,-27017.089964996572,-33992.57767111989,-38471.129652396405,-37624.132648007,-26919.412841726884,-36141.34027258638
14274.740430681757,5145.237463144954,-26945.00558912821,-33927.91407441069,-38387.64588685583,-37557.65855999691,-26832.442204051284,-36066.79720482793
14353.038591508699,5093.023788097356,-26994.33588914107,-34005.742848604066,-38156.79707012142,-37618.90233980445,-26745.672732075782,-36053.453213388115
14397.116231574564,5040.519540371841,-27074.422189524437,-34083.66102977527,-38211.51414054801,-37696.35113434209,-26829.82704995001,-36133.87478993831
14323.35547487205,5089.536915962329,-27034.121994271518,-34012.06839228492,-38448.86731491891,-37639.82357261462,-26930.23108604325,-36152.18086864721
14261.262328775209,5142.0858671767555,-26956.449682289327,-33935.983054159056,-38433.288149033564,-37565.97340893429,-26873.189434193308,-36086.75731262652
14327.088216196087,5102.299762046309,-26989.843188505554,-33997.4727031556,-38196.33730606286,-37615.39311592497,-26770.01378178761,-36068.25006821752
14388.622568681547,5035.75861880286,-27080.747733205288,-34094.27810839154,-38193.431579283664,-37707.16937865846,-26825.35670105895,-36142.45785980915
14334.508995355249,5074.695357644005,-27057.233698038304,-34040.07512808742,-38430.583587954476,-37665.99746537179,-26934.56732446758,-36170.86692701184
14261.239977030753,5141.750591009926,-26966.664429505403,-33941.23571410605,-38461.78662321408,-37573.95298170483,-26885.70641108828,-36099.318993010405
14309.765614243224,5115.353180808209,-26975.7168860098,-33977.6690575682,-38228.45676284513,-37599.076342472596,-26766.52690965258,-36057.58828611235
14388.935493103922,5045.146351474089,-27062.4863579853,-34075.03325641552,-38161.490936457034,-37689.35503832758,-26789.59390993046,-36107.365621014316
14352.189225219397,5059.76439234786,-27058.507747472257,-34048.41232876925,-38379.465148385185,-37673.70881720887,-26903.364289207973,-36150.34802560187
14270.761820168713,5128.853634459214,-26972.09590340804,-33944.78964147445,-38479.95859145625,-37578.736255018266,-26896.79287633811,-36097.217929031605
14302.769518228713,5126.2384803579425,-26956.539089267146,-33947.53890604245,-38271.0815395214,-37571.49428981475,-26775.467607434704,-36037.62817831375
14387.214408780863,5052.880055055625,-27043.375616476016,-34054.380244538814,-38147.722261872565,-37668.09852935059,-26771.354886454927,-36085.70678063712
14370.629414395025,5051.002508521379,-27067.426093509926,-34059.74466320809,-38339.477877554644,-37683.70004698039,-26885.773466321643,-36147.15172614476
14283.34585229705,5131.8711199606805,-26982.489464579758,-33948.18710663165,-38484.94303046978,-37584.10067368754,-26904.370117708462,-36102.35883025632
14287.771497699201,5145.7292015229705,-26946.123176350975,-33930.7080424676,-38305.45852249367,-37557.479746041274,-26783.96127032772,-36028.44161134263
14374.138638274508,5071.029671553334,-27030.45630818085,-34040.29864553197,-38138.62510187925,-37653.99457859929,-26751.126557722877,-36063.84677455983
14377.401992964984,5046.263938696854,-27078.423151781935,-34077.22372737214,-38300.38467650231,-37697.49107330931,-26871.691867314803,-36144.87184821032
14293.135916368476,5117.074265131267,-27002.874255523,-33975.23271742257,-38491.71560903974,-37606.94415652086,-26923.32439700656,-36122.92243515521
14281.82593367409,5154.558140582817,-26944.15622283891,-33925.969472643075,-38356.465203340675,-37555.82571695158,-26818.584122488992,-36050.14515520873
14364.102705014075,5083.323131003754,-27016.218246962817,-34028.49692445957,-38151.54441017442,-37645.45621221736,-26755.149871724832,-36064.629085615765
14390.522466960248,5040.340726416198,-27086.045096641195,-34090.36655311186,-38260.79973707196,-37706.92350946945,-26849.60834379296,-36143.39663307627
14311.73256775529,5098.254096299898,-27021.560313887636,-34002.166569491215,-38476.449367576766,-37628.088906775585,-26920.642187671925,-36134.254769594045
14277.221474316297,5146.310346878809,-26946.52550775117,-33931.71387096809,-38398.88881431685,-37557.05506289662,-26837.605457020458,-36059.35407392431
14354.379696176016,5093.090843330722,-26997.643947320455,-34008.71563061662,-38167.95059060462,-37620.198740982865,-26748.086720476953,-36053.2073441991
14398.56909496416,5035.691563569494,-27078.64666922649,-34088.46665483316,-38212.18469288167,-37698.04986692069,-26818.382956788893,-36125.13525785628
14324.160137672441,5078.472802456952,-27035.35134021656,-34020.070316799916,-38445.71571895072,-37642.86340986054,-26914.56251318008,-36139.999167919064
14264.860959632511,5139.582471797761,-26954.125100865975,-33932.8091064464,-38432.30467227753,-37557.39033906345,-26853.542250817092,-36068.22771647307
14325.702408039859,5096.95769512149,-26987.742124526754,-33992.98000252009,-38196.89609967424,-37605.26777568672,-26750.254839689118,-36045.38423363975
14386.007414580276,5027.779046032316,-27075.49507325829,-34089.628945544835,-38186.74840769153,-37700.46385532187,-26804.189599059773,-36118.407382775236
14335.31365815564,5061.396069693097,-27052.562183447146,-34040.11983157633,-38423.1181053064,-37665.57278222714,-26917.736460892735,-36153.72313901462
14275.388631270962,5141.437666587552,-26952.09109212054,-33925.32127205387,-38457.2268673452,-37559.022016408686,-26872.27301267064,-36081.45994919061
14318.885125980989,5119.175329110066,-26959.489519535247,-33956.948990458135,-38225.7745535105,-37580.07735968559,-26756.088644991953,-36034.27541664546
14396.155106562986,5043.805246806771,-27053.411549736447,-34064.326770821426,-38155.903000343205,-37682.85068069109,-26780.11677028141,-36097.03911507596
14359.945280545388,5056.433982424019,-27054.529136959212,-34038.97989260911,-38373.36312214889,-37671.65245671898,-26894.535350148126,-36148.29166511198
14272.661718447414,5126.9984396694235,-26971.33594409656,-33934.32902506936,-38477.05286467706,-37574.891754971955,-26891.74138209121,-36093.35107724083
14302.188372872875,5127.289012347343,-26946.704321706813,-33936.49714428153,-38269.13693775379,-37569.52733630268,-26771.332534710473,-36034.32012013437
14390.522466960248,5059.272653969843,-27037.340645473083,-34042.91379963324,-38143.11780251477,-37663.87404964853,-26759.53081363807,-36077.86131833331
14371.076449284132,5049.437886409508,-27063.7380556748,-34052.1897735822,-38336.23687460862,-37680.83902369011,-26880.297288930095,-36144.29070285448
14281.06597436261,5119.9576401660015,-26978.935537211364,-33940.162830372195,-38482.797263002074,-37578.89271722946,-26901.12911476244,-36097.19557728715
14276.05918360462,5127.221957113977,-26952.448720031825,-33927.39998428822,-38318.55664474447,-37557.03271115216,-26792.58904368747,-36029.22392239856
14373.915120829955,5068.414517452064,-27020.10745049804,-34019.89150284428,-38137.01577627847,-37640.65058715947,-26749.47252863318,-36057.27536168997
14382.60994942307,5047.850912553181,-27067.157872576463,-34053.24030557159,-38285.96780132864,-37677.68742772191,-26856.537384574105,-36125.872865423305
14283.703480208336,5102.188003324032,-27005.668223579913,-33963.58745856136,-38487.24526014868,-37597.80229303864,-26913.37787072395,-36108.70672568163
14266.023250344188,5135.760323495904,-26947.9113159074,-33913.54190272593,-38361.2037731652,-37545.49921101322,-26808.279968295097,-36034.09660268982
14354.35734443156,5076.125869289144,-27011.457325393836,-34005.92166255971,-38153.69017764213,-37625.987842796785,-26746.231525687163,-36050.77100405347
14386.387394236017,5037.5467583592845,-27069.795378422186,-34060.8398986864,-38243.4771351191,-37683.40947430247,-26836.532573286604,-36125.314071811925
14303.864753707023,5098.745834677915,-27017.268778952217,-33976.2161941786,-38461.18312611379,-37610.78865656718,-26911.545027678614,-36122.184827588186
14256.479055461772,5143.270509632887,-26941.541068737635,-33907.84220788982,-38395.40194218182,-37541.49824875573,-26826.653102237357,-36044.69132956163
14333.83844302159,5095.527183476351,-26990.893720494954,-33982.11705471481,-38168.68819817164,-37603.56904310812,-26739.838926772944,-36037.94110273613
14378.161952276463,5030.349496644676,-27079.78660819371,-34069.11004413486,-38214.688088260664,-37690.91966043945,-26822.920360913322,-36119.726135698096
14301.0260821612,5061.127848759634,-27050.438767723892,-34013.074220785405,-38458.50091677915,-37647.937255851895,-26932.60037095551,-36149.56571454593
14243.068008788588,5130.239442615443,-26970.44187431835,-33921.923806896666,-38449.6272742304,-37559.13377513096,-26867.44503586829,-36073.458024675616
14311.151422399453,5103.81968066927,-26988.122104182497,-33967.29784814094,-38205.70268698963,-37592.59433658056,-26748.086720476953,-36031.48144858854
14385.448620968893,5042.66530783955,-27071.672924956434,-34059.901125419274,-38174.566706963386,-37680.34728531209,-26791.337345997974,-36097.37439124279
14330.59744007557,5065.709956372972,-27044.761424632245,-34014.86236034183,-38406.64486964284,-37645.143287794985,-26903.163123507875,-36127.95157765765
14251.740485637247,5133.189872883543,-26957.94724916783,-33912.558425969895,-38461.831326702995,-37550.14837385993,-26877.145692961898,-36066.50663215001
14298.25446584874,5117.9012796761135,-26963.825757959577,-33941.280417594964,-38235.877542004295,-37569.52733630268,-26763.710589851213,-36027.41343109768
14381.648824411492,5047.202711963977,-27056.45138698237,-34046.3336165349,-38155.12068928727,-37669.752558440276,-26778.48509293617,-36086.08676029286
14344.8355012936,5058.177418491533,-27062.039323096196,-34029.05571807095,-38370.72561630316,-37664.70106419338,-26893.37305943645,-36132.95836841564
14249.371200724985,5118.638887243139,-26988.077400693586,-33931.24448433453,-38490.50861483916,-37575.53995556116,-26898.849236828,-36089.14894928324
14276.640328960459,5117.923631420569,-26964.33984808205,-33931.780926201456,-38290.01346707505,-37566.4651473123,-26780.273232492596,-36031.772021266464
14369.377716705529,5047.716802086449,-27039.329950729603,-34037.057642585954,-38142.55900890339,-37661.147136824984,-26761.989505528156,-36072.5639548974
14359.006507278265,5040.676002583027,-27070.912965644955,-34046.64654095728,-38331.811229206476,-37676.63689573251,-26878.442094140304,-36128.15274335775
14263.29633752064,5103.529107991351,-26994.91703449691,-33946.13074614176,-38493.74961778517,-37588.19104292286,-26911.0532893006,-36093.6192981743
14263.855131132023,5121.3658000666865,-26959.266002090695,-33921.81204817439,-38328.01143264907,-37557.23387685226,-26794.846569877456,-36028.5533700649
14349.059980995653,5045.034592751813,-27052.91981135843,-34036.45414548566,-38167.03416908195,-37657.1908780564,-26760.76015958311,-36064.360864682305
14373.423382451938,5036.85385428117,-27083.765218706754,-34061.801023697975,-38298.21655729014,-37687.18691911542,-26865.74630328969,-36129.13622011378
14281.49065750726,5101.003360867901,-27019.39219467547,-33970.69531329814,-38491.961478228746,-37607.41354315443,-26924.307873762595,-36116.999222874554
14259.720058407791,5137.637870030149,-26959.422464301882,-33917.25229230551,-38365.294142400526,-37556.67508324088,-26815.29841605406,-36040.98093998205
14349.17173971793,5076.774069878348,-27011.434973649382,-34005.47462767061,-38163.97198009157,-37636.51551443524,-26750.09837747793,-36045.65245457321
14376.619681909047,5029.276612910821,-27082.424114039437,-34068.77476796803,-38268.444033675674,-37699.27921286574,-26854.391617106394,-36124.3752985448
14299.036776904677,5087.547610705807,-27024.28722671118,-33979.099569213344,-38483.847794991474,-37622.6797846174,-26927.928856364353,-36118.96617638662
14249.10297979152,5137.8613874747025,-26965.166862626895,-33912.11139108078,-38414.915015091305,-37554.95399891782,-26835.83966920849,-36040.84682951532
14328.630486563503,5091.749738663404,-27009.71388932632,-33987.906156528734,-38189.877651915274,-37616.622461870014,-26745.180993697762,-36031.36968986627
14385.649786668992,5035.848025780681,-27072.611698223558,-34070.9428871802,-38223.53937906497,-37693.04307616271,-26818.382956788893,-36104.19167330166
14312.693692766868,5077.265808256365,-27061.72639867382,-34006.59221489337,-38467.59807677246,-37643.37749998301,-26924.956074351798,-36124.01767063352
14254.288584505151,5139.850692731225,-26952.895754920934,-33909.31742302387,-38438.22788455819,-37555.11046112901,-26860.806567765067,-36049.966341253086
14319.421567847916,5100.712788189982,-26970.933612696364,-33961.95578121612,-38207.490826546054,-37589.06276095662,-26751.640647845346,-36019.76913449397
14384.755716890779,5033.858720524159,-27065.749712675777,-34042.19854381067,-38182.30041054492,-37676.815709688155,-26796.433543733783,-36087.7184376381
14312.470175322316,5048.968499775947,-27066.777892920723,-34004.200578236654,-38411.74106737865,-37642.39402322698,-26904.727745619744,-36122.43069677719
14228.04763651462,5101.092767845723,-26972.52058655269,-33911.217321302574,-38476.315257110036,-37550.4612982823,-26876.9445272618,-36061.43278615866
14270.53830272416,5084.172497293055,-26979.11435116701,-33940.69927223912,-38260.084481249396,-37573.43889158236,-26757.407397914816,-36018.09275365982
14307.284570608685,4960.1203155661005,-27069.325991788628,-34050.80396542596,-38166.542430703936,-37661.705930436365,-26757.027418259077,-36064.070292004384
14245.660811145402,4946.418696214998,-27146.059530503695,-34072.39575056979,-38404.297936475035,-37674.2452590758,-26889.483855901228,-36130.79024920348
14157.885510669412,5015.463234837441,-27109.872056230553,-33940.76632747249,-38549.830144623535,-37597.71288606082,-26915.27776900265,-36102.6717546787
14192.664825041871,5019.061865694745,-26930.700472676814,-33933.52436226897,-38293.74620839908,-37553.32232157258,-26754.85929904691,-36011.722506490056
14222.169127722875,4912.220527198378,-27072.611698223558,-34064.21501209915,-38163.97198009157,-37660.096604835584,-26745.20334544222,-36054.59315235534
14154.398638534385,4862.465544040864,-27168.254812747815,-34098.3461258824,-38350.00554919309,-37698.09457040961,-26875.491663872202,-36131.57256025941
14072.79241952806,4931.443027429942,-27053.97034334783,-33961.709912027116,-38509.55230111507,-37580.971429463796,-26897.575187394046,-36087.919603338196
14069.841989259958,4900.798785781716,-26976.074513921085,-33946.62248451978,-38350.11730791537,-37545.946245902334,-26780.519101681602,-36015.58935828082
14105.425966432807,4798.606610132052,-27086.78270420822,-34089.18191065573,-38162.63087542426,-37642.52813369371,-26739.548354095026,-36047.731166807556
14075.854608518435,4763.402612614944,-27175.38501922906,-34161.15452780182,-38331.25243559509,-37704.50952106828,-26863.824053266533,-36132.22076084861
14012.330950776453,4865.751250475794,-27083.139369862005,-34003.61943288081,-38528.3948216909,-37614.811970569135,-26922.475030717258,-36124.688222967176
14018.790604924037,4892.953323477903,-26932.17568781086,-33862.64698060119,-38359.14741267532,-37525.13677181444,-26775.177034756787,-36016.41637282567
14137.120740070432,4853.9942328923025,-26997.44278162036,-33988.464950140115,-38158.71932014458,-37608.26290944373,-26705.171371122764,-36027.793410753424
14143.26746979564,4783.832107047094,-27106.385184095525,-34073.60274477038,-38263.213725473135,-37683.40947430247,-26810.73866018518,-36112.55122572795
14026.189032338743,4816.040970807191,-27070.890613900498,-34003.06063926943,-38481.52321356812,-37611.41450541193,-26895.004736781688,-36113.221778061605
13907.836545447892,4793.353950185055,-27059.334762017104,-33989.940165274165,-38447.70502420724,-37568.454452568825,-26831.70459648426,-36059.48818439105
13872.2749200195,4612.237764863702,-27176.502606451824,-34156.79593763303,-38253.71423407963,-37637.8342673581,-26757.273287448086,-36063.33268443736
13884.255455047543,4565.56732244102,-27347.091120134726,-34302.864587648466,-38300.63054569132,-37755.20327749292,-26849.854212981965,-36164.1390519308
13847.799759840938,4596.166860600336,-27287.34490720569,-34284.82672987303,-38552.66881616936,-37703.727210012345,-26957.030827645165,-36189.86590979885
13782.040927653425,4693.888687358938,-27132.357911152594,-34183.14864434584,-38578.79800543762,-37631.75459286626,-26909.17574276635,-36128.44331603567
13933.89867948278,4722.342458050544,-27077.17145409244,-33992.06358099742,-38253.71423407963,-37630.480543432306,-26758.279115948575,-36056.113070978296
13863.535387937474,4565.097935807459,-27201.42480151949,-34100.111913694374,-38240.30318740645,-37718.85934100859,-26805.530703727094,-36129.38208930279
13868.296309506453,4589.640151219386,-27235.5782670472,-34179.28179255507,-38448.48733526318,-37705.87297748005,-26915.27776900265,-36173.415025879745
13699.406528402154,4524.507167876622,-27176.502606451824,-34171.6151442069,-38607.27412787368,-37645.009177328255,-26945.162051339397,-36163.133223430304
13703.787470315394,4517.309906162012,-27286.562596149757,-34203.04169691106,-38451.66128297583,-37682.6942184799,-26862.30413464357,-36138.99333941857
13847.2186144851,4553.407973457333,-27344.49831777791,-34303.11045683747,-38220.45483833013,-37809.74153396387,-26825.468459781227,-36170.91163050075
13795.474326071064,4474.126335874359,-27270.40228490857,-34355.68175979635,-38419.519474449095,-37725.14018120053,-26930.722824421267,-36213.469351943655
13556.645936566109,4445.1584750602815,-27404.021013262394,-34212.29531911556,-38746.72666153034,-37726.48128586785,-27086.894462930497,-36293.734466282665
13801.889276729737,4618.29508761109,-27086.55918676367,-34029.05571807095,-38395.73721834865,-37610.63219435599,-26822.31686381303,-36100.23541453307
13815.032102469457,4476.808545208996,-27250.844508510174,-34278.61294491446,-38226.4227540997,-37763.13814677455,-26833.53743952959,-36188.12247373134
13768.16049434668,4427.321782984946,-27329.008558870384,-34205.90272020134,-38421.620538427895,-37753.19162049194,-26943.776243183165,-36242.88424764684
13821.335294405853,4598.558497257054,-27147.5570973822,-34073.22276511464,-38609.35284010802,-37695.70293375289,-26961.747045725235,-36202.36053494937
13745.920508613648,4531.883243546873,-27191.61238570361,-34276.22130825774,-38432.41643099981,-37679.09558762259,-26870.8425010255,-36163.9378862307
13779.336366574333,4510.872603758884,-27230.504421055844,-34313.973404642755,-38182.6133349673,-37695.904099452986,-26786.978755829186,-36151.19739189117
13550.92388998555,4272.491249143034,-27757.31268612298,-34621.153428692036,-38597.30524984661,-37887.793825601795,-27077.819654681643,-36379.56516499104
13814.1603844357,4512.504281104121,-27100.73019274833,-34132.544294899024,-38661.54416341116,-37691.61256451757,-26996.705174053335,-36244.582980225445
13799.140012161733,4614.987029431704,-27118.07514644565,-33901.918995609165,-38467.553373283554,-37602.719676818815,-26871.066018470054,-36144.24599936557
13900.03578663299,4641.697364055796,-27074.735113946812,-33962.62633354978,-38279.6869611367,-37666.98094212782,-26771.511348666114,-36120.24022582057
13937.273792895532,4569.255360276146,-27008.23867419227,-34082.18581464122,-38173.29265752943,-37665.57278222714,-26797.752296656647,-36154.28193262601
13887.161181826734,4580.721805181719,-26924.084356318042,-34062.18100335372,-38393.45734041421,-37598.18227269439,-26862.75116953268,-36139.55213302995
13844.469349917097,4667.267759712668,-27018.475773152804,-33954.02091193449,-38483.847794991474,-37569.6167432805,-26833.515087785137,-36091.18295802867
13894.090222607878,4670.575817892053,-26935.23787680124,-33944.74493798553,-38193.74450370604,-37600.1715779509,-26711.698080503713,-36064.33851293785
13994.896590101313,4669.391175435922,-26984.81404600311,-33971.67879005418,-38066.71953996653,-37540.51477199969,-26703.115010632875,-36068.18301298416
13974.757668347082,4685.775004121662,-26943.619780971978,-33937.25710359301,-38326.625624492845,-37572.075435170584,-26814.24788406466,-36114.138199584275
13815.434433869654,4643.709021056774,-27067.06846559864,-33955.51847881299,-38358.990950464125,-37510.74224838522,-26809.7775351736,-36088.14312078275
13825.872698530282,4547.417705943311,-27039.7322821298,-34041.63975019929,-38269.8298418319,-37580.14441491895,-26752.11003447891,-36094.28985050796
13987.408755708786,4568.316587009023,-27007.322252669604,-34056.213087584154,-38100.895357238696,-37622.076287517106,-26718.87299047387,-36099.18488254367
14122.145071285377,4815.281011495711,-26826.317826070528,-33795.74820944646,-38216.163303394715,-37495.31954471106,-26738.922505250277,-36044.69132956163
13844.044666772446,4708.685542188352,-26963.311667837104,-33884.28346923393,-38410.444666200245,-37496.593594145015,-26818.092384110976,-36077.68250437766
13858.014507057012,4600.011360646648,-26968.38551382846,-33950.53403979946,-38213.68225976018,-37545.47685926877,-26703.159714121786,-36046.18889644014
14022.769215437082,4631.750837773185,-26907.36525146547,-33925.23186507605,-38134.847657066304,-37589.53214759018,-26687.8487691699,-36068.272419961984
13969.90733980028,4666.418393423366,-26880.878434285933,-33946.89070545325,-38210.19538762515,-37586.6711242999,-26784.050677305542,-36116.59689147436
13956.183368704722,4766.308339394133,-26880.297288930095,-33846.57607633783,-38373.318418659976,-37497.30884996759,-26801.328575769494,-36071.93810605265
13901.265132578032,4704.684579930852,-26933.04740584462,-33932.42912679066,-38174.901983130214,-37480.5450416261,-26682.819626667457,-36009.30851808888
13900.393414544274,4546.836560587473,-27107.681585273935,-34067.65718074527,-38088.46778732155,-37615.236653713786,-26703.942025177723,-36083.06927479139
14028.848889928924,4644.647794323897,-26886.17579772184,-33939.80520246091,-38200.1147508758,-37595.12008370401,-26763.352961939927,-36098.49197846556
13969.52736014454,4755.8477229890495,-26814.761974187135,-33822.74911674847,-38344.28350261253,-37461.61311407246,-26797.931110612288,-36057.56593436789
13922.789862488493,4746.795266484651,-26881.23606219722,-33850.97936999552,-38288.04651356298,-37470.21853568775,-26739.0119122281,-36026.005271197
14001.53505820454,4654.661375839874,-26923.57026619557,-33907.19400730062,-38093.608688546265,-37543.46520226779,-26666.949888104187,-36028.486314831534
14024.333837548953,4641.518550100154,-27017.67111035241,-34017.38810746528,-38287.62183041833,-37620.466961916325,-26794.131314054885,-36121.6260339768
14020.735206691648,4765.794249271661,-26871.35659114797,-33806.32058457382,-38350.89961897131,-37507.74711462821,-26804.97191011571,-36076.83313808836
13978.24454048211,4828.960279102359,-26676.784655664524,-33720.1099062097,-38155.52302068747,-37404.996145367164,-26649.269658240042,-35952.44568019458
14063.896425234847,4753.947824710349,-26779.714438881212,-33830.236951141,-37981.46998661399,-37491.56445164257,-26593.0773726794,-35962.30279949937
14039.15304412282,4635.952965730782,-26931.393376754928,-33974.271592410994,-38102.7952555174,-37581.4184643529,-26718.135382906843,-36067.646571117235
13946.549766844484,4655.846018296006,-26987.04922044864,-33961.37463586028,-38370.61385758089,-37548.38258604796,-26841.584067533502,-36108.43850474817
13939.866595252348,4775.092574965069,-26788.878654107888,-33786.13695933067,-38309.48183649562,-37472.833689789026,-26754.144043224343,-36026.36289910828
13992.326139488952,4721.3142778056,-26855.97859096272,-33863.7422160795,-38083.50570005247,-37521.51578921268,-26652.957696075166,-36000.79250345141
14083.253035933143,4704.751635164218,-26920.977463838753,-33941.548638528424,-38082.96925818554,-37597.80229303864,-26709.306443846996,-36062.59507687033
14030.279401574064,4723.728266206774,-26892.50134140269,-33896.46516996207,-38321.14944710129,-37558.463222797305,-26823.523858013614,-36093.55224294093
13955.579871604428,4779.674682578407,-26813.666738708824,-33796.10583735774,-38335.05223215249,-37463.78123328462,-26772.517177166603,-36022.29488161742
13988.503991187095,4725.248184829734,-26841.60641927796,-33854.19802119709,-38111.31127015487,-37499.61107964648,-26665.22880378113,-35989.057837612374
14049.367791338896,4648.514646114665,-26937.94243788033,-33984.911022771725,-38067.747720211475,-37602.60791809653,-26706.400717067805,-36053.85554478831
13995.321273245963,4669.815858580573,-26943.843298416534,-33952.880972967265,-38297.97068810114,-37594.09190345906,-26832.844535451477,-36107.16445531422
13901.622760489317,4722.968306895293,-26875.51401561666,-33867.47495740354,-38391.289221202045,-37519.61589093398,-26831.6822447398,-36067.98184728406
13935.128025427823,4713.848795157528,-26865.433378867314,-33889.24555650301,-38182.054541355916,-37526.25435903721,-26714.492048560627,-36015.343489091814
13999.210476781187,4627.682820282319,-26959.489519535247,-34005.89931081526,-38081.1364151402,-37626.121953263515,-26722.51632482008,-36066.99837052803
13967.448647910196,4617.713942255252,-26987.76447627121,-34017.835142354386,-38287.24185076259,-37642.63989241599,-26849.720102515235,-36135.05943239444
13877.50522822204,4684.858582598994,-26904.7500973642,-33919.331004539854,-38422.44755297274,-37549.14254535944,-26863.399370121882,-36089.730094639075
13881.193266057166,4692.346416991522,-26883.31477443156,-33920.67210920717,-38247.85807703234,-37537.564341731595,-26752.75823506811,-36025.781753752446
13957.613880349862,4612.48363405271,-26984.05408669163,-34046.3336165349,-38112.428857377636,-37648.987787841295,-26735.27917090406,-36070.88757406325
13961.681897840726,4587.159107584847,-27033.49614542677,-34081.40350358528,-38288.605307174366,-37685.46583479236,-26860.627753809425,-36143.284874353994
13886.84825740436,4660.15990497588,-26953.38749329895,-33977.37848489028,-38463.641818003875,-37594.315420903615,-26901.352632206996,-36108.10322858134
13871.582015941385,4686.959646577793,-26908.393431710414,-33944.29790309643,-38323.295214569,-37562.374778076985,-26795.628880933393,-36033.82838175636
13952.76355180306,4629.850939494484,-26988.14445592695,-34050.468689259134,-38133.461848910076,-37657.4367472454,-26738.117842449887,-36053.00617849901
13974.24357822461,4602.201831603269,-27044.15792753195,-34099.32960263844,-38251.34494916737,-37710.63389904903,-26829.603532505458,-36119.32380429791
13894.358443541341,4652.761477561174,-26980.947194212342,-34008.78268584999,-38465.85464070495,-37641.25408425976,-26902.42551594085,-36113.847626906354
13865.345879238354,4687.741957633729,-26930.298141276617,-33959.25122013703,-38385.54482287703,-37595.25419417074,-26819.522895756116,-36044.579570839356
13946.460359866664,4650.459247882277,-26998.80623803213,-34039.851610642865,-38173.73969241854,-37669.819613673644,-26736.687330804747,-36034.364823623284
13986.782906864037,4599.296104824079,-27077.014991881253,-34117.41216390278,-38251.70257707865,-37745.83789656614,-26825.155535358852,-36109.35492627083
13919.727673498115,4653.163808961369,-27014.273645195204,-34040.05277634296,-38474.63887627589,-37685.912869681466,-26915.769507380668,-36121.87190316581
13889.329301038899,4735.753504723729,-26925.559571452093,-33948.92471419868,-38431.94704436625,-37604.44076114187,-26826.429584792804,-36041.09269870433
13977.462229426174,4714.496995746732,-26961.52352828068,-34012.023688796005,-38201.29939333194,-37653.949875110375,-26720.437612585738,-36012.95185243509
14046.104436648422,4661.880989298938,-27045.744901388276,-34103.21880617366,-38205.99325966755,-37741.74752733082,-26783.06720054951,-36086.310277737415
13997.176468035756,4708.529079977165,-27020.35331968705,-34049.8875439033,-38435.90330313484,-37701.82731173364,-26885.147617476898,-36113.4229437617
13950.1931011907,4794.560944385641,-26925.09018481853,-33946.801298475424,-38450.38723354188,-37602.65262158545,-26822.20510509075,-36037.18114342465
14006.407738495796,4773.3267871531,-26949.319475808083,-33990.7224763301,-38221.28185287498,-37631.41931669942,-26706.803048468002,-36002.066552885364
14090.45029764775,4716.2851353031565,-27038.25706699575,-34088.10902692188,-38165.73776790354,-37722.681489310446,-26735.34622613743,-36060.38225416926
14073.619434072905,4756.071240433603,-27030.411604691937,-34055.00609338356,-38381.2085844527,-37703.526044312246,-26844.668608268334,-36103.47641747909
14003.859639627892,4839.085619340613,-26933.539144222636,-33945.59430427483,-38456.1763353558,-37605.89362453147,-26821.579256246005,-36043.08200396085
14045.478587803673,4841.365497275055,-26928.174725553363,-33959.318275370395,-38251.18848695618,-37611.30274668965,-26704.456115300192,-35994.735180704025
14146.508472741662,4786.022578003714,-27022.230866221296,-34069.95941042416,-38151.07502354086,-37714.25488165079,-26715.788449739033,-36057.029492500966
14122.301533496564,4783.89916228046,-27048.874145612022,-34075.569698282445,-38355.88405798484,-37731.44337313693,-26846.166175146842,-36130.38791780328
14051.178282639776,4871.205076122889,-26956.85201368952,-33964.705045784125,-38490.95564972826,-37631.441668443884,-26859.353704375473,-36087.47256844909
14087.589274357471,4910.298277175221,-26917.04355681462,-33942.129783884266,-38302.508092225566,-37603.18906345237,-26737.089662204944,-36020.75261125
14182.874760970446,4851.736706702317,-26999.789714788167,-34043.36083452235,-38145.21886649357,-37693.06542790716,-26708.56883627997,-36056.314236678394
14193.04480469761,4843.153636831479,-27048.49416595628,-34069.847651701886,-38318.62369997784,-37723.150875944004,-26834.655026752356,-36128.84564743586
14116.914763082834,4922.681143603461,-26959.914202679898,-33960.212345148604,-38491.31327763954,-37630.07821203211,-26879.85025404099,-36105.309260524424
14109.114004267933,4952.699536406939,-26914.89778934691,-33920.605053973806,-38355.19115390672,-37588.794540023155,-26781.614337159914,-36041.763251037984
14207.461679871283,4897.691893302428,-26982.57887155758,-34013.05186904095,-38155.67948289865,-37666.466852005346,-26725.958493466198,-36057.25300994552
14228.069988259076,4860.520942273252,-27052.986866591797,-34072.86513720336,-38275.8871645793,-37728.202370190906,-26830.296436583572,-36139.61918826332
14156.678516468826,4935.578100154174,-26979.807255245123,-33975.05390346693,-38481.0314751901,-37639.66711040343,-26894.60240538149,-36121.84955142135
14126.928344598813,4984.953103655947,-26915.255417258195,-33914.88300739325,-38393.390285180845,-37579.80913875212,-26806.02244210511,-36048.53582960794
14223.15260447891,4953.057164318224,-26967.24557486124,-33991.43773215267,-38161.781509134955,-37644.00334882776,-26717.308368361995,-36048.66994007468
14277.06501210511,4911.035884742247,-27029.763404102734,-34064.326770821426,-38220.67835577469,-37712.77966651674,-26795.8747501224,-36111.21012106063
14205.38296763694,4952.923053851492,-26981.036601190164,-33995.170473476705,-38451.16954459781,-37656.140346067,-26881.75015231969,-36120.3743362873
14155.203301334775,5010.702313268461,-26903.0513647856,-33912.51372248098,-38420.435895971765,-37578.89271722946,-26812.526799741605,-36049.85458253081
14232.495633661227,4979.856905920137,-26928.241780786728,-33965.4203016067,-38183.95443963462,-37621.808066583646,-26712.458039815196,-36024.999442696506
14287.816201188112,4910.432387641953,-27025.091889511576,-34063.9914946546,-38192.64926822773,-37716.46770435187,-26777.747485369146,-36104.14696981275
14231.445101671829,4945.792847370249,-27000.929653755386,-34011.66606088472,-38430.89651237685,-37677.21804108835,-26891.450809413294,-36138.63571150729
14163.339336316507,5014.457406336953,-26913.71314689078,-33913.89953063721,-38458.94795166826,-37584.92768823239,-26847.59668679198,-36069.881745562765
14220.24687769972,4997.715949739927,-26924.397280740417,-33950.511688055005,-38233.59766406985,-37610.43102865589,-26742.34232215194,-36034.6553963012
14298.075651893098,4925.855091316115,-27018.609883619534,-34060.348160308386,-38177.76300642049,-37709.873939737554,-26778.887424336368,-36100.347173255344
14250.399380969928,4933.946422808936,-27029.226962235807,-34043.45024150017,-38403.49327367464,-37701.760256500274,-26901.531446162637,-36155.08659542639
14165.976842162234,5000.040531163279,-26942.6586559604,-33942.263894350996,-38493.25787940715,-37609.1793309664,-26889.50620764568,-36104.45989423512
14202.790165280125,5000.152289885556,-26927.414766241884,-33947.80712697591,-38284.112606538845,-37607.43589489888,-26774.864110334413,-36052.73795756554
14297.718023981814,4936.516873421297,-27006.405831146938,-34048.56879098043,-38164.17314579167,-37698.98864018782,-26771.041962032556,-36096.68148716468
14276.796791171646,4934.974603053881,-27031.126860514505,-34051.876849159824,-38359.750909775605,-37709.06927693716,-26891.964899535764,-36154.594857048374
14186.94277846131,5008.154214400556,-26944.893830405934,-33944.34260658534,-38500.23162367721,-37614.09671474656,-26911.65678640089,-36113.26648155051
14195.972883221255,5016.46906333793,-26914.920141091367,-33929.6575104782,-38325.3962785478,-37594.673048814904,-26798.422848990303,-36051.88859127624
14285.759840698223,4947.424524715487,-26997.711002553824,-34034.91187511824,-38160.35099748981,-37687.38808481552,-26764.96228754071,-36079.42594044518
14286.475096520793,4923.798730826227,-27044.359093232048,-34066.04785514448,-38323.138752357816,-37722.27915791025,-26879.35851566297,-36146.92820870021
14206.947589748812,5000.375807330109,-26954.348618310527,-33955.22790613507,-38495.04601896358,-37622.8809503175,-26910.80742011159,-36113.355888528335
14182.673595270348,5018.9948104613795,-26923.525562706658,-33925.0083476315,-38371.35146514791,-37588.369856878504,-26816.348948043462,-36052.78266105445
14273.421677758895,4957.527513209286,-26987.317441382103,-34020.96438657813,-38173.717340674084,-37674.06644512015,-26761.050732261032,-36072.78747234195
14301.227247861296,4919.931879035459,-27040.671055396924,-34075.07795990443,-38273.361417455846,-37729.118791713576,-26856.671495040835,-36141.6308452643
14212.446118884816,4972.6819959499835,-26987.96564197131,-33991.549490874946,-38497.974097487226,-37658.37552051253,-26936.46722274628,-36137.272255095515
14179.119667901954,5021.341743629187,-26918.116440548474,-33922.5049522525,-38411.78577086756,-37591.186176679876,-26841.02527392212,-36061.03045475846
14260.480017719272,4967.3399290251655,-26966.172691127384,-34008.76033410554,-38184.46852975709,-37662.71175893686,-26757.876784548378,-36063.64560885973
14304.669416507413,4917.808463312204,-27046.460157210848,-34080.01769542905,-38242.35954789633,-37743.82623956516,-26845.31680885754,-36145.385938332794
14237.39066569694,4969.664510448517,-26990.647851305945,-33999.55141538995,-38468.55920178404,-37676.97217189934,-26933.42738550036,-36149.94569420168
14185.71343251627,5029.880110011114,-26911.746193378713,-33914.97241437106,-38443.45819276073,-37590.91795574641,-26863.153500932873,-36072.7651205975
14247.404247212917,4987.925885668503,-26958.886022434956,-33984.66515358271,-38219.6725272742,-37647.110241307055,-26769.58909864296,-36058.79528031293
14311.68786426638,4930.370143696087,-27044.917886843432,-34079.30243960648,-38210.17303588069,-37736.53957087274,-26823.054471380052,-36132.801906204455
14255.20500602782,4962.042565589258,-27018.699290597357,-34033.6825291732,-38444.218152072215,-37698.36279134307,-26929.247609287217,-36161.456842596155
14189.915560473868,5038.731400815416,-26920.977463838753,-33929.322234311374,-38474.75063499816,-37600.86448202902,-26887.8968820449,-36092.05467606243
14236.429540685362,5016.714932526938,-26938.411824513892,-33966.49318534055,-38252.90957127924,-37628.53594166469,-26784.229491261183,-36055.01783549999
14311.889029966478,4944.295280491743,-27038.05590129565,-34068.12656737883,-38190.52585250448,-37725.29664341172,-26814.27023580912,-36119.659080464735
14261.083514819566,4945.368164225598,-27053.635067181,-34059.25292483007,-38421.68759366126,-37724.93901550043,-26941.496365248724,-36176.94660150368
14170.84952245349,5011.685790024494,-26966.552670783123,-33954.914981712696,-38521.35402218748,-37634.07917428961,-26938.121251835975,-36135.037080649985
14203.840697269523,5007.461310322441,-26955.466205533292,-33960.74878701553,-38315.60621447638,-37630.12291552102,-26823.6803202248,-36078.196594500136
14300.176715871898,4946.284585748266,-27025.762441845232,-34055.296666061484,-38179.327628532366,-37716.19948341841,-26807.765878172624,-36105.130446568786
14281.200084829341,4938.841454844649,-27053.25508752526,-34062.20335509817,-38372.066720970484,-37728.85057078011,-26922.229161528252,-36162.708540285654
14176.61627252296,4995.078443894201,-26993.10654319603,-33973.89161275526,-38541.872923597446,-37647.06553781814,-26958.304877079117,-36137.49577254007
14189.33441511803,5012.021066191324,-26947.397225784927,-33951.18224038866,-38361.76256677658,-37618.34354619307,-26842.522840800626,-36070.23937347405
14281.11067785152,4939.243786244844,-27019.123973742007,-34059.16351785225,-38183.68621870115,-37706.722343769354,-26799.07104957951,-36091.85351036233
14285.536323253671,4913.695742332428,-27060.02766609522,-34087.32671586594,-38325.32922331443,-37742.462783153394,-26902.47021942976,-36154.70661577066
14186.831019739035,4979.096946608656,-26997.934519998376,-33991.34832517485,-38522.784533832615,-37660.16366006895,-26958.684856734857,-36138.613359762836
14173.196455621297,5017.8772232386145,-26943.686836205346,-33941.638045506246,-38391.3115729465,-37606.98886000978,-26849.18366064831,-36063.53385013746
14263.497503220739,4957.035774831268,-27001.66726132241,-34033.92839836221,-38183.9097361457,-37687.67865749343,-26784.07302905,-36073.435672931155
14291.124259367498,4915.6850475889505,-27069.325991788628,-34095.21688165866,-38290.684019408705,-37750.509411157305,-26885.70641108828,-36154.90778147075
14211.417938639874,4979.454574519941,-27010.33973817107,-34008.26859572752,-38505.90896676886,-37673.32883755313,-26960.875327691476,-36150.16921164623
14170.111914886465,5023.845139008181,-26948.783033941156,-33940.47575479457,-38433.75753566713,-37606.6759355874,-26875.71518131676,-36076.43080668817
14244.431465200361,4969.8656761486145,-27001.711964811322,-34022.01491856753,-38212.92230044869,-37672.09949160808,-26790.77855238659,-36070.641704874244
14302.858925206534,4929.476073917875,-27065.906174886964,-34090.187739156216,-38246.87460027631,-37739.7582220743,-26854.056340939565,-36136.75816497304
14222.727921334259,4966.6917284359615,-27035.038415794184,-34030.910912860745,-38485.05478919206,-37694.83121571913,-26959.19894685733,-36163.24498215258
14169.642528252904,5028.449598365974,-26950.057083375108,-33935.84894369232,-38469.38621632889,-37607.14532222096,-26893.954204792288,-36086.75731262652
14233.836738328546,4985.489545522874,-26980.05312443413,-33993.73996183157,-38235.54226583747,-37652.340549509594,-26787.649308162847,-36059.108204735305
14300.668454249913,4920.624783113573,-27072.16466333445,-34094.099294435895,-38226.89214073326,-37747.42487042247,-26841.896991955877,-36132.13135387079
14246.95721232381,4951.894873606548,-27054.4844334703,-34050.69220670369,-38463.28419009259,-37715.10424794009,-26954.90741192191,-36164.92136298673
14171.274205598142,5019.598307561673,-26972.67704876388,-33942.62152226228,-38510.87105403794,-37619.81876132712,-26921.200981283306,-36100.28011802198
14224.873688801968,5008.6683045230275,-26965.837414960555,-33975.47858661158,-38277.65295239126,-37636.11318303504,-26801.55209321405,-36054.213172699594
14303.64123626247,4937.88032983307,-27065.347381275584,-34084.95743095368,-38197.83487294136,-37735.265521438785,-26823.12152661342,-36112.50652223903
14259.831817130069,4937.656812388517,-27087.095628630595,-34069.26650634605,-38437.80320141354,-37735.64550109452,-26954.080397377063,-36173.16915669074
14181.645415025403,5016.9384499714915,-26968.519624295193,-33961.75461551602,-38526.31610945656,-37628.04420328668,-26941.42931001536,-36113.6241094618
14213.340188663029,5022.079351196212,-26945.072644361575,-33956.032568935465,-38309.01244986206,-37620.24344447177,-26811.34215728547,-36050.32396916437
14300.623750761004,4951.380783484075,-27040.849869352565,-34060.057587630465,-38181.87572740027,-37719.37343113106,-26800.45685773574,-36097.17322554269
14286.87742792099,4945.077591547679,-27062.642820196488,-34072.082826147416,-38373.02784598206,-37731.80100104821,-26918.8540481155,-36155.35481635986
14192.664825041871,5011.126996413112,-26988.837360005065,-33969.37656037528,-38529.46770542475,-37641.16467728194,-26944.37974028346,-36120.30728105394
14192.553066319593,5019.41949360603,-26957.679028234368,-33954.087967167856,-38366.29997090101,-37621.15986599444,-26833.336273829496,-36061.11986173628
14288.665567477414,4953.057164318224,-27024.421337177915,-34047.85353515787,-38190.68231471566,-37706.722343769354,-26790.979718086688,-36089.23835626106
14290.319596567108,4922.144701736534,-27080.859491927564,-34093.51814908006,-38338.02501416505,-37752.454012924914,-26901.822018840554,-36159.95927571765
14198.453926855795,4987.098871123657,-27010.384441659982,-34000.44548516816,-38532.373432203945,-37666.86918340554,-26955.019170644187,-36140.22268536362
14182.584188292527,5024.023952963824,-26961.456473047314,-33961.30758062692,-38411.294032489546,-37621.49514216127,-26856.112701429454,-36070.775815340974
14276.77443942719,4972.279664549788,-27029.271665724715,-34059.632904485814,-38206.12737013428,-37703.07900942314,-26794.198369288253,-36079.40358870073
14310.369111343518,4932.828835586171,-27088.570843764646,-34109.23142543214,-38301.41285674726,-37757.505507171816,-26887.27103320015,-36150.280970368505
14220.313932933084,4979.789850686771,-27019.01221501973,-34011.86722658482,-38510.58048136002,-37674.64759047599,-26954.706246221813,-36137.54047602898
14182.830057481535,5033.791665290793,-26945.00558912821,-33942.53211528446,-38435.65743394583,-37604.41840939742,-26865.27691665613,-36059.08585299085
14266.760857911213,4986.875353679104,-27002.449572378348,-34028.11694480383,-38223.51702732051,-37679.609677745066,-26792.946671598755,-36067.57951588387
14330.262163908741,4947.424524715487,-27079.496035515793,-34103.30821315148,-38262.14084173928,-37752.23049548036,-26862.75116953268,-36138.43454580719
14262.53637820916,4993.89380143807,-27035.418395449924,-34029.77097389352,-38479.66801877833,-37688.9974104163,-26947.352522296016,-36139.84270570787
14196.554028577093,5046.085124741212,-26946.167879839886,-33941.4592315506,-38469.49797505116,-37605.513644875726,-26884.164140720863,-36066.41722517219
14271.588834713559,5018.078388938712,-26972.00649643022,-33992.667078097715,-38236.23516991558,-37650.15007855297,-26780.11677028141,-36040.7574225375
14344.276707682218,4953.1689230405,-27061.97226786283,-34089.40542810028,-38216.14095165026,-37740.56288487469,-26828.664759238334,-36112.01478386102
14295.013462902722,4985.869525178615,-27037.362997217537,-34040.65627344326,-38440.284245048075,-37705.09066642412,-26933.04740584462,-36144.87184821032
14214.725996819257,5048.789685820304,-26956.71790322279,-33937.659434993206,-38494.84485326348,-37614.90137754696,-26907.164085765373,-36084.74565562554
14255.719096150291,5025.767389031338,-26957.94724916783,-33968.37073187479,-38276.80358610196,-37636.02377605722,-26798.042869334564,-36041.58443708235
14339.404027390961,4959.405059743531,-27051.712817157844,-34078.25190761709,-38202.34992532134,-37732.56096035969,-26820.729889956703,-36101.688277922665
14310.637332276981,4975.073632606702,-27057.188994549393,-34052.54740149348,-38415.049125558035,-37722.36856488807,-26932.17568781086,-36152.00205469156
14229.656962115403,5053.505903900374,-26956.449682289327,-33941.99567341753,-38505.797208046584,-37618.18708398189,-26916.70828064779,-36093.84281561885
14253.461569960305,5056.366927190653,-26946.458452517803,-33948.47767930957,-38304.85502539337,-37615.88485430299,-26802.28970078107,-36040.444498115125
14330.351570886562,4970.3350627821765,-27051.668113668933,-34071.56873602494,-38187.35190479182,-37723.26263466628,-26803.250825792653,-36087.070237048894
14314.079500923099,4957.192237042455,-27086.425076296935,-34090.09833217839,-38381.856785041906,-37746.35198668861,-26929.71699592078,-36158.104080927864
14232.160357494398,5032.875243768125,-26996.34754614205,-33982.13940645926,-38537.78255436213,-37647.84784887408,-26957.835490445555,-36122.22953107709
14225.276020202164,5044.654613096072,-26963.222260859286,-33966.53788882946,-38373.72075006017,-37623.41739218443,-26845.808547235556,-36059.64464660223
14308.200992131353,4967.988129614369,-27050.39406423498,-34069.51237553506,-38199.44419854214,-37719.50754159779,-26805.508351982637,-36094.60277493033
14324.093082439076,4944.250577002833,-27092.348288577592,-34102.41414337327,-38341.936569444726,-37758.37722520557,-26914.920141091367,-36161.47919434061
14243.515043677693,5018.883051739103,-27017.447592907858,-33994.18699672067,-38529.62416763594,-37665.88570664951,-26964.630420759968,-36133.96419691613
14222.705569589803,5055.495209156896,-26952.493423520737,-33943.515592040494,-38406.42135219829,-37609.1793309664,-26856.380922362918,-36057.4094721567
14308.893896209467,4994.966685171925,-27010.138572470973,-34046.981817124106,-38195.08560837336,-37688.52802378274,-26786.643479662358,-36063.444443159635
14349.46231239585,4963.137801067567,-27071.516462745247,-34089.53953856701,-38280.849251848376,-37746.597855877626,-26876.229271439228,-36136.66875799522
14267.29729977814,5014.971496459424,-27018.051090008154,-34005.76520034852,-38505.48428362421,-37679.00618064478,-26961.38941781395,-36142.368452831324
14223.309066690097,5062.0219185378455,-26949.207717085807,-33937.81589720439,-38450.007253886135,-37612.04035425668,-26887.673364600345,-36072.47454791958
14300.154364127442,5013.764502258838,-26993.330060640583,-34010.146142261765,-38215.537454549965,-37669.685503206914,-26795.517122211117,-36061.499841392026
14361.755771846269,4966.155286569034,-27067.426093509926,-34086.49970132109,-38245.71230956463,-37744.65325411001,-26863.60053582198,-36130.85730443684
14291.839515190068,5008.243621378377,-27028.7799273467,-34021.56788367843,-38479.511556567144,-37692.327820340135,-26963.401074814927,-36148.51518255653
14220.716264333281,5062.088973771211,-26954.773301455178,-33938.79937396042,-38478.125748410916,-37611.97329902331,-26903.386640952427,-36077.68250437766
14294.097041380053,5039.178435704522,-26961.925859680876,-33975.29977265594,-38235.83283851539,-37642.12580229352,-26785.749409884145,-36038.768117280975
14360.347611945585,4966.8705423916035,-27064.766235919746,-34080.531785551524,-38220.41013484122,-37741.79223081973,-26840.68999775529,-36113.512350739526
14308.268047364718,4994.8102229607375,-27047.77891013371,-34036.96823560813,-38450.96837889771,-37711.43856184943,-26955.153281110917,-36153.36551110334
14232.562688894594,5070.33676747522,-26952.895754920934,-33931.423298290174,-38501.66213532235,-37610.52043563371,-26916.462411458782,-36084.633896903266
14282.027099374189,5064.301796472287,-26952.158147353908,-33951.53986829995,-38276.490661679585,-37620.28814796068,-26794.243072777164,-36029.35803286529
14360.258204967762,4988.216458346422,-27050.34936074607,-34064.192660354696,-38192.604564738824,-37722.525027099255,-26812.124468341408,-36089.90890859472
14328.36226563004,4994.385539816087,-27058.44069223889,-34055.49783176158,-38403.73914286365,-37719.865169509074,-26933.89677213392,-36144.268351110026
14238.687066875347,5064.3688517056535,-26975.180444142872,-33953.35035960083,-38521.309318698564,-37625.6302148855,-26940.579943726058,-36099.654269177234
14252.433389715361,5060.569055148251,-26965.502138793727,-33960.8158422489,-38331.4983047841,-37622.0315840282,-26829.31295982754,-36045.56304759539
14335.64893432247,4980.8403826761705,-27058.26187828325,-34077.179023883225,-38199.667715986696,-37726.74950680131,-26818.651177722357,-36091.38412372877
14343.002658248266,4987.300036823754,-27073.729285446323,-34070.339390079906,-38377.36408440639,-37735.60079760561,-26925.336054007537,-36148.96221744564
14262.53637820916,5064.704127872483,-26976.968583699298,-33953.55152530093,-38528.3948216909,-37633.8333051006,-26949.386531041448,-36114.31701353991
14260.368258996996,5083.077261814745,-26930.36519650998,-33927.28822556594,-38360.22029640917,-37598.96458375032,-26829.961160416744,-36038.87987600325
14346.64599259448,5012.222231891422,-27014.340700428573,-34024.25009301306,-38176.48895698654,-37686.78458771522,-26780.832026103977,-36054.0567104884
14351.7868938192,4973.710176194928,-27076.344439547593,-34068.75241622358,-38323.42932503573,-37735.57844586116,-26894.60240538149,-36131.90783642624
14264.25746253222,5038.619642093139,-27005.914092768922,-33974.47275811109,-38527.746621101694,-37653.391081498994,-26962.6634672479,-36126.25284507905
14229.276982459663,5065.553494161784,-26951.5099467647,-33929.03166163345,-38413.395096468346,-37600.59626109556,-26857.856137496965,-36046.90415226271
14311.73256775529,4999.414682318531,-27008.842171292566,-34021.56788367843,-38200.04769564244,-37677.12863411053,-26780.005011559133,-36043.84196327233
14350.579899618615,4956.991071342358,-27073.50576800177,-34084.93507920922,-38281.743321626585,-37738.1041929846,-26866.729780045724,-36111.56774897191
14266.20206429983,5011.954010957958,-27024.466040666826,-34005.027592781495,-38506.87009178044,-37669.50668925127,-26946.860783918,-36110.11488558232
14220.917430033378,5065.262921483865,-26944.849126917023,-33926.34945229882,-38444.218152072215,-37593.53310984768,-26864.695771300292,-36035.99650096852
14295.482849536284,5020.291211639787,-26990.20081641684,-33996.44452291066,-38214.26340511601,-37649.72539540832,-26771.91368006631,-36024.37359385176
14352.613908364048,4965.283568535277,-27073.796340679688,-34081.31409660746,-38241.21960892911,-37733.05269873771,-26841.293494855585,-36100.81655988891
14283.859942419524,5001.89572595307,-27042.41449146444,-34024.607720924345,-38480.584440301,-37689.86912845005,-26948.581868241057,-36129.96323465863
14213.76487180768,5056.813962079759,-26962.350542825527,-33941.32512108387,-38487.73699852669,-37610.36397342253,-26901.822018840554,-36070.48524266306
14270.806523657624,5025.543871586785,-26983.76351401371,-33983.16758670421,-38252.95427476815,-37642.79635462718,-26790.845607619955,-36035.39300386822
14342.64503033698,4959.427411487986,-27071.270593556237,-34085.53857630951,-38223.785248253975,-37733.432678393445,-26833.73860522969,-36096.99441158705
14303.752994984747,4997.157156128545,-27045.8343083661,-34033.32490126192,-38443.27937880509,-37695.25589886378,-26937.271885546674,-36131.192580603674
14230.260459215697,5069.733270374927,-26953.789824699143,-33927.176466843666,-38501.77389404463,-37593.93544124788,-26905.308890975582,-36064.09264374884
14263.430447987372,5049.99668002089,-26965.34567658254,-33956.725473013576,-38282.95031582717,-37613.18029322389,-26799.361622257427,-36022.87602697325
14345.774274560723,4979.991016386869,-27058.0383608387,-34053.86615441634,-38191.196404838134,-37710.11980892656,-26808.838761906478,-36076.83313808836
14309.609152032037,4978.202876830444,-27076.32208780314,-34052.860325915855,-38406.15313126482,-37713.20434966139,-26930.476955232258,-36134.880618438794
14231.042770271633,5057.931549302524,-26971.29124060765,-33933.68082448016,-38509.46289413725,-37605.69245883137,-26924.866667373975,-36077.57074565539
14251.695782148336,5062.759526104871,-26943.7091879498,-33928.361109299796,-38316.3438220434,-37594.471883114806,-26807.899988639354,-36018.07040191536
14337.235908178796,4984.506068766841,-27042.928581586908,-34048.27821830252,-38185.00497162402,-37700.150930899494,-26799.182808301786,-36068.51828915099
14331.200937175863,4975.6771297069945,-27075.763294191755,-34065.153785366274,-38359.99677896462,-37725.92249225646,-26918.47406845976,-36136.154667872746
14242.95625006631,5048.9908515204015,-26995.96756648631,-33958.33479861436,-38524.34915594449,-37628.02185154222,-26950.749987453222,-36096.63678367576
14244.610279156004,5073.756584376882,-26943.843298416534,-33924.42720227566,-38366.188212178735,-37586.492310344256,-26834.02917790761,-36023.79244849592
14330.709198797847,5005.740225999382,-27022.789659832677,-34028.98866283759,-38180.26640179949,-37674.73699745381,-26784.698877894745,-36046.30065516241
14342.510919870248,4973.9113418950255,-27081.8429686836,-34074.13918663731,-38315.42740052073,-37727.3083004127,-26896.099972259995,-36126.90104566825
14257.686049662358,5039.133732215611,-27004.5729881016,-33972.21523192111,-38514.112056983955,-37643.9362935944,-26954.393321799438,-36114.965214129115
14229.344037693028,5076.4611454559745,-26941.71988269328,-33915.01711785998,-38406.868387087394,-37580.34558061905,-26852.983457205708,-36030.34150962133
14312.894858466967,5015.5302900708075,-27003.075421223097,-34004.31233695893,-38186.256669313516,-37650.64181693099,-26775.35584871243,-36030.028585198954
14355.050248509677,4968.189295314467,-27076.210329080863,-34076.66493376076,-38263.4819464066,-37722.3015096547,-26862.97468697723,-36107.43267624768
14277.623805716492,5026.3932378760865,-27021.96264528783,-33996.26570895502,-38491.02270496162,-37652.698177420876,-26946.257286817705,-36114.85345540684
14230.327514449064,5080.752680391393,-26939.887039647943,-33923.77900168645,-38440.46305900372,-37579.429159096384,-26864.874585255933,-36043.97607373906
14304.624713018504,5038.4855316264075,-26982.847092491043,-33983.1228832153,-38206.84262595685,-37637.58839816909,-26770.39376144335,-36022.60780603979
14371.277614984228,4986.204801345444,-27058.59715445008,-34063.008017898566,-38225.260463388026,-37716.49005609632,-26835.102061641464,-36086.53379518197
14300.623750761004,5015.262069137343,-27033.96553206033,-34011.84487484037,-38468.49214655068,-37673.12767185303,-26943.552725738613,-36117.51331299702
14230.595735382527,5075.745889633405,-26949.006551385708,-33920.8062196739,-38471.979018685706,-37586.224089410796,-26886.51107388867,-36048.357015652306
14285.335157553573,5044.073467740234,-26978.6673162779,-33972.79637727694,-38246.293454920466,-37623.618557884525,-26780.049715048044,-36019.32209960486
14359.453542167372,4978.26993206381,-27063.17926206342,-34073.91566919276,-38201.32174507639,-37713.025535705754,-26818.651177722357,-36081.79522535744
14309.989131687777,5001.716911997427,-27053.366846247536,-34038.42109899773,-38435.43391650128,-37692.21606161786,-26939.171783825375,-36125.939920656674
14237.748293608225,5079.121003046155,-26950.638228730946,-33919.77803942896,-38492.85554800696,-37588.9733539788,-26906.18060900934,-36058.6611698462
14267.20789280032,5060.300834214787,-26956.7626067117,-33948.72354849858,-38280.67043789273,-37605.580700109094,-26793.840741376967,-36017.06457341487
14348.858815295556,4986.8306501901925,-27052.293962513682,-34058.26944807404,-38184.33441929035,-37705.60475654659,-26803.451991492748,-36073.07804501987
14317.409910846938,4981.846211176659,-27074.802169180177,-34058.26944807404,-38400.05110502853,-37712.55614907219,-26933.270923289172,-36135.75233647256
14231.780377838657,5053.975290533936,-26980.567214556602,-33946.24250486404,-38522.27044371014,-37608.35231642155,-26936.444871001826,-36081.72817012408
14244.051485544622,5054.757601589871,-26962.05997014761,-33948.58943803185,-38335.432211808235,-37599.81395003962,-26819.96993064522,-36022.69721301761
14337.101797712065,4985.7130629674275,-27047.845965367076,-34052.48034626011,-38184.55793673491,-37694.786512230225,-26794.041907077066,-36060.67282684718
14332.69850405437,4972.570237227707,-27085.26278558526,-34067.254849345074,-38354.4535463397,-37716.04302120722,-26907.61112065448,-36125.51523751202
14242.24099424374,5041.055982238768,-26992.927729240386,-33958.87124048129,-38522.62807162143,-37623.0821160176,-26943.53037399416,-36095.250975519535
14224.560764379594,5050.8683980546475,-26960.942382924844,-33940.229885605564,-38385.343657176934,-37595.924746504395,-26844.176869890318,-36029.38038460975
14320.427396348405,4994.720815982916,-27031.462136681337,-34030.44152622718,-38188.22362282558,-37674.2452590758,-26782.21783426021,-36040.08687020384
14338.174681445918,4962.847228389648,-27082.87114892854,-34076.53082329402,-38317.26024356607,-37723.732021299846,-26889.014469267666,-36114.85345540684
14258.602471185026,5036.6079850921615,-27006.696403824855,-33970.27063015349,-38525.95848154527,-37634.794430112175,-26955.153281110917,-36101.50946396702
14229.299334204119,5078.204581523488,-26942.14456583793,-33914.793600415425,-38420.570006438495,-37574.51177531621,-26855.531556073616,-36023.54657930691
14316.873468980011,5022.012295962846,-26997.979223487288,-33997.852682811346,-38195.59969849583,-37648.02666282972,-26772.651287633336,-36021.11023916129
14357.263071210751,4974.246618061855,-27072.924622645933,-34065.869041188846,-38265.47125166312,-37717.07120145216,-26857.096178185486,-36100.43658023317
14280.887160406966,5027.220252420932,-27025.091889511576,-33992.331801930886,-38499.47166436573,-37653.50284022127,-26950.504118264213,-36110.427810004694
14239.91641282039,5091.190945052022,-26942.6586559604,-33902.81306538738,-38448.66614921882,-37565.99576067874,-26869.56845159155,-36028.93334972064
14318.259277136242,5048.119133486644,-26958.617801501492,-33965.68852254016,-38206.48499804557,-37616.93538629239,-26763.934107295765,-36007.11804713226
14372.37285046254,4983.455536777441,-27053.232735780806,-34059.275276574524,-38229.95432972364,-37710.65625079349,-26832.866887195934,-36080.20825150111
14294.857000691534,5008.645952778573,-27038.50293618476,-34013.54360741897,-38474.191841386775,-37670.110186351565,-26944.022112372175,-36111.14306582726
14231.445101671829,5076.394090222609,-26942.993932127232,-33915.91118763819,-38473.05190241956,-37571.874269470485,-26881.191358708307,-36033.22488465606
14290.9230936674,5047.202711963977,-26958.28252533466,-33951.33870259985,-38246.60637934284,-37608.665240843926,-26776.96517431321,-36005.352259320294
14367.835446338111,4980.952141398447,-27050.885802612996,-34055.587238739405,-38198.99716365304,-37700.62031753306,-26812.39268927487,-36069.591172884844
14314.906515467945,4990.943371169969,-27060.295887028682,-34041.75150892157,-38436.998538613145,-37692.23841336232,-26938.478879747257,-36124.08472586688
14231.042770271633,5058.780915591827,-26967.15616788342,-33929.322234311374,-38511.63101334942,-37594.047199970155,-26917.13296379244,-36063.35503618181
14271.320613780095,5054.467028911952,-26968.81019697311,-33951.00342643302,-38299.17768230173,-37598.6740110724,-26802.87084613691,-36011.25311985649
14358.60417587807,4979.096946608656,-27052.361017747047,-34066.427834800226,-38196.42671304068,-37702.4978640673,-26812.124468341408,-36070.75346359652
14330.798605775668,4977.062937863224,-27075.02568662473,-34064.103253376874,-38402.84507308544,-37711.57267231616,-26935.193173312327,-36127.66100497973
14240.609316898504,5047.806209064271,-26987.67506929339,-33946.24250486404,-38528.95361530228,-37611.97329902331,-26941.8092896711,-36081.79522535744
14254.288584505151,5056.501037657385,-26962.842281203542,-33936.8100687039,-38350.251418382104,-37595.991801737764,-26825.759032459144,-36026.78758225293
14357.687754355402,4998.811185218237,-27027.43882267938,-34036.700014674665,-38172.890326129236,-37680.45904403437,-26781.16730227081,-36052.60384709881
14349.574071118126,4977.0852896076785,-27072.768160434745,-34066.561945266956,-38348.5526858035,-37713.89725373951,-26899.832713584034,-36120.03906012047
14255.249709516731,5042.687659584005,-26999.05210722114,-33967.94604873014,-38533.60277814898,-37627.61952014203,-26950.437063030848,-36097.32968775388
14239.9611163093,5059.742040603404,-26961.031789902663,-33937.078289637364,-38393.79261658104,-37590.11329294602,-26842.321675100528,-36029.02275669846
14322.237887649286,4985.400138545053,-27035.328988472105,-34040.410404254246,-38195.48793977356,-37678.58149750013,-26786.330555239983,-36049.809879041895
14347.428303650417,4961.617882444606,-27099.836122970122,-34093.048762446495,-38323.02699363554,-37730.19167544743,-26892.79191408061,-36118.20621707514
14266.872616633489,5034.506921113363,-27019.280435953195,-33992.935299031175,-38528.41717343535,-37644.07040406113,-26955.108577622006,-36101.6212226893
14231.802729583113,5071.811982609271,-26954.527432266168,-33932.76440295749,-38430.2706635321,-37582.42429285339,-26859.8901462424,-36029.02275669846
14310.480870065794,5013.585688303196,-27021.91794179892,-34006.52515966001,-38211.760009737016,-37654.46396523285,-26784.07302905,-36031.79437301092
14350.244623451785,4960.321481266199,-27074.86922441354,-34078.27425936154,-38278.6364291473,-37718.63582356404,-26869.657858569368,-36101.64357443376
14272.281738791675,5007.304848111254,-27026.991787790274,-34004.15587474774,-38507.74180981419,-37651.49118322029,-26955.600316000025,-36106.73977216957
14222.01266551169,5064.972348805946,-26956.7626067117,-33898.52153045196,-38469.922658195814,-37571.53899330366,-26879.760847063168,-36031.79437301092
14290.274893078196,5016.357304615653,-26992.659508306922,-33967.94604873014,-38232.54713208046,-37621.47279041682,-26779.714438881212,-36012.92950069064
14337.079445967609,4941.724829879383,-27088.280271086725,-34074.49681454859,-38243.29832116346,-37715.23835840683,-26844.378035590416,-36087.38316147127
14275.567445226605,4978.806373930737,-27054.707950914857,-34012.314261473926,-38482.37257985742,-37668.41145377296,-26948.91714440789,-36115.70282169614
14207.126403704455,5047.694450341994,-26945.94436239533,-33901.69547816461,-38479.779777500604,-37573.14831890444,-26889.305041945583,-36040.936236493144
14243.447988444328,5001.068711408224,-26979.136702911463,-33959.20651664812,-38264.80069932946,-37618.14238049297,-26788.006936074133,-36016.21520712557
14305.004692674243,4911.438216142442,-27077.819654681643,-34073.40157907028,-38220.61130054132,-37719.06050670869,-26826.54134351508,-36083.11397828031
14250.891119347945,4924.849262815626,-27071.561166234158,-34045.17132582323,-38434.495143234155,-37698.58630878762,-26941.965751882286,-36133.47245853811
14156.186778090809,4985.847173434159,-26982.020077946196,-33935.37955705876,-38509.775818559625,-37595.34360114856,-26916.082431803043,-36073.12274850878
14164.769847961647,4944.116466536101,-27000.594377588557,-33966.60494406283,-38317.036726121514,-37611.41450541193,-26808.391727017373,-36026.966396208576
14238.53060466416,4849.680346212429,-27080.054829127173,-34071.7922534695,-38199.06421888641,-37701.916718711465,-26800.613319946926,-36066.32781819437
14205.070043214566,4861.146791118002,-27066.84494815409,-34058.7388347076,-38389.03169501206,-37701.31322161117,-26902.6490333854,-36116.06044960743
14082.224855688199,4898.004817724803,-27000.616729333015,-33962.49222308305,-38527.29958621259,-37613.42616241291,-26922.586789439534,-36084.18686201416
14060.16368391081,4858.039898638714,-27013.111354483528,-33985.82744429439,-38362.611933065884,-37608.26290944373,-26822.20510509075,-36043.12670744976
14151.425856521828,4789.3306361831,-27094.427000811935,-34079.57066053995,-38198.32661131938,-37695.14414014151,-26785.525892439593,-36074.262687476
14130.616382433938,4770.733984796284,-27063.872166141533,-34072.082826147416,-38328.860798938375,-37700.95559369989,-26865.299268400584,-36117.423906019205
13990.359185976886,4797.086691509091,-27027.505877912747,-33980.507729114026,-38524.99735653369,-37625.25023522976,-26919.502248704703,-36104.90692912423
13959.759647817571,4779.428813389399,-26988.278566393685,-33938.88878093824,-38387.55647987801,-37584.950039976844,-26813.64438696437,-36040.869181259775
14019.416453768785,4701.3765217514665,-27049.8352706236,-34046.490078746094,-38189.251803070525,-37670.64662821849,-26755.462796147203,-36058.19178321264
14021.763386936593,4645.564215846564,-27110.006166697287,-34092.8475967464,-38313.125170841835,-37718.43465786394,-26857.811434008057,-36131.34904281486
13898.582923243395,4673.168620248869,-27068.67779119942,-34019.712688888634,-38525.8914263119,-37645.567970939635,-26929.448774987315,-36129.38208930279
13866.396411227754,4730.076161632081,-27030.59041864758,-33981.71472331461,-38456.69042547827,-37599.635136083976,-26855.106872928965,-36072.9662862976
13963.805313563982,4680.634102896941,-27075.69623895839,-34056.280142817515,-38246.09228922037,-37655.20157279987,-26773.455950433727,-36068.98767578455
13994.561313934484,4636.288241897612,-27115.99643421131,-34123.402431416805,-38289.208804274655,-37720.24514916482,-26849.675399026324,-36141.742603986575
13924.488595067096,4681.528172675154,-27076.54560524769,-34036.275331530014,-38505.037248735105,-37655.06746233314,-26937.026016357664,-36153.16434540324
13862.21663501461,4719.861414416006,-26990.692554794856,-33950.69050201065,-38466.83811746098,-37566.4651473123,-26857.274992141127,-36077.10135902183
13911.815155960938,4660.6963468428075,-27041.810994364143,-34027.15581979225,-38242.40425138525,-37620.42225842742,-26761.38600842786,-36058.10237623482
13968.007441521579,4606.135738627403,-27123.707786048388,-34122.9553965277,-38236.928073993695,-37705.202425146395,-26815.052546865052,-36129.158571858236
13893.062042362935,4625.425294092333,-27115.32588187765,-34092.33350662392,-38477.209326888245,-37671.02660787423,-26929.024091842664,-36164.85430775336
13813.020445468479,4658.885855541927,-27045.476680454813,-34002.948880547156,-38522.73983034371,-37589.91212724592,-26895.496475159704,-36109.042001848466
13877.84050438887,4654.795486306606,-27061.771102162733,-34044.09844208937,-38283.82203386093,-37621.40573518345,-26786.039982562066,-36075.22381248758
13932.870499237837,4585.0356918615935,-27135.28598967624,-34136.27703622306,-38218.48788481807,-37703.57074780115,-26807.989395617176,-36134.34417657187
13907.165993114233,4603.252363592668,-27115.03530919973,-34099.70958229418,-38438.965492125215,-37687.1422156265,-26923.81613538458,-36180.187604449704
13843.530576649973,4693.776928636662,-27021.20268597635,-33993.20351996464,-38522.33749894351,-37594.047199970155,-26914.89778934691,-36130.6784904812
13863.870664104303,4675.537905161132,-27021.850886565553,-34022.61841566782,-38312.856949908375,-37599.702191317345,-26804.033136848586,-36085.86324284831
13948.248499423087,4597.95500015676,-27101.065468915163,-34126.129344240355,-38186.2119658246,-37706.00708794678,-26803.36258451493,-36139.57448477441
13909.1329466263,4569.52358120961,-27113.023652198754,-34120.42964940425,-38372.31259015949,-37706.521178069255,-26918.943455093322,-36196.549081390986
13801.196372651622,4646.659451324875,-27034.63608439399,-34018.48334294359,-38519.1411994864,-37610.743953078265,-26947.57603974057,-36164.96606647564
13826.520899119485,4652.314442672067,-27050.036436323695,-34011.39783995126,-38347.21158113618,-37588.459263856326,-26838.70069249877,-36102.51529246751
13918.453624064163,4596.323322811523,-27124.311283148683,-34138.73572811314,-38197.99133515255,-37690.56203252817,-26818.11473585543,-36142.14493538677
13923.102786910868,4554.190284513269,-27129.74275705132,-34198.07960964199,-38349.334996859434,-37717.27236715226,-26925.604274941,-36208.507264674576
13824.330428162864,4623.592451046998,-27093.756448478278,-34113.79118130102,-38544.48807769872,-37644.27156976123,-26980.924842467888,-36191.96697377765
13814.316846646887,4653.454381639288,-27020.330967942595,-33961.17347016018,-38380.5603838635,-37586.78288302218,-26862.41589336585,-36108.594966959354
13863.2224635151,4552.893883334861,-27118.32101563466,-34105.87866376384,-38202.50638753252,-37662.39883451448,-26814.314939298027,-36135.64057775028
13864.764733882515,4496.254562885113,-27184.48217922237,-34186.032019380575,-38302.55279571447,-37738.551227873715,-26922.430327228347,-36225.561645693975
13834.321657934388,4589.662502963842,-27098.718535747354,-34084.42098908675,-38525.48909491171,-37674.446424775895,-26998.694479309856,-36229.8531806294
13784.611378265785,4625.760570259163,-27017.827572563598,-34007.39687769376,-38427.87902687538,-37590.91795574641,-26895.18355073733,-36139.90976094124
13833.248774200532,4541.494493662655,-27082.44646578389,-34127.112820996386,-38198.214852597106,-37658.26376179025,-26809.710479940237,-36136.89227543977
13878.488704978074,4492.499469816622,-27168.344219725637,-34202.43819981077,-38279.709312881154,-37729.92345451396,-26902.760792107678,-36222.07477355895
13831.55004162193,4567.064889319527,-27126.434698871937,-34113.94764351221,-38491.15681542836,-37667.80795667267,-26989.99965071674,-36226.16514279427
13760.851473909794,4615.2105468762575,-27004.863560779522,-34090.679477534235,-38460.66903599132,-37581.01613295271,-26918.071737059563,-36153.38786284779
13845.721047606594,4581.682930193297,-27027.416470934924,-34098.65905030478,-38226.936844222175,-37626.09960151906,-26812.63855846388,-36129.60560674735
13863.870664104303,4462.034042124038,-27173.596879672634,-34173.939725630255,-38243.633597330285,-37724.38022188905,-26887.18162622233,-36214.07284904395
13825.984457252558,4538.208787227725,-27188.013754846306,-34144.39071946034,-38506.490112124695,-37700.06152392167,-27013.334871928084,-36260.877401933365
13769.523950758452,4598.491442023688,-27051.511651457746,-34045.439546756694,-38485.54652757008,-37592.79550228066,-26937.785975669143,-36182.66864808424
13648.265737088412,4397.34809367038,-27254.823119023218,-34282.859776360965,-38349.759680004085,-37662.66705544794,-26883.113608731463,-36188.94948827619
13763.936014644625,4409.865070565352,-27258.48880511389,-34267.906459320366,-38292.87449036533,-37762.95933281891,-26903.9007310749,-36244.76179418109
13854.348820966343,4536.912386049317,-27129.496887862315,-34169.268211039096,-38385.99185776614,-37683.00714290227,-26947.57603974057,-36238.302140033506
13645.360010309221,4452.936882130728,-27153.010923029295,-34275.4389972018,-38522.13633324341,-37638.370709225026,-26979.226109889285,-36227.394488739315
13530.941430442504,4361.071212419416,-27292.73167761942,-34159.07581556747,-38486.015914203635,-37699.390971588015,-26948.693626963333,-36221.69479390321
13801.554000562908,4454.210931564681,-27322.861829145175,-34268.956991309766,-38240.86198101783,-37719.97692823135,-26864.047570711085,-36191.92227028874
13854.50528317753,4530.98917376866,-27113.98477721033,-34141.37323395887,-38318.62369997784,-37696.06056166418,-26925.537219707636,-36224.46641021567
13601.17061152108,4391.491936623089,-27130.681530318445,-34193.54220551756,-38563.06237734108,-37682.6942184799,-27019.39219467547,-36255.66944547528
13606.155050534613,4425.220719006147,-27254.756063789853,-34189.161263604314,-38483.40076010236,-37683.92356442494,-26944.178574583362,-36208.75313386359
13577.656576354097,4247.79257151992,-27548.569744654866,-34538.27316025176,-38414.69149764675,-37857.35074965367,-26992.905377495932,-36319.66248985082
13622.672989687086,4284.538839404445,-27328.94150363702,-34438.02558636971,-38359.16976441977,-37798.67742045849,-27003.455400878836,-36309.537149612566
13542.653744537085,4329.264680059514,-27286.5402444053,-34347.098689925515,-38560.64838893991,-37708.778704259246,-27076.389143036504,-36313.22518744769
13611.564172692797,4411.630858377321,-27199.05551660723,-34380.380437419466,-38501.70683881126,-37694.80886397468,-26986.021040203697,-36242.37015752437
13687.403641629655,4369.296654378969,-27371.990963457938,-34212.183560393285,-38331.58771176192,-37765.75330087582,-26947.62074322948,-36261.905582178304
13864.541216437963,4474.5063155300995,-27260.746331303875,-34229.170886179316,-38343.65765376778,-37793.4694640004,-26993.128894940484,-36299.07653320748
13856.31577447841,4572.921046366817,-27032.467965181826,-34052.010959626554,-38545.82918236604,-37627.038374786185,-27000.326156655094,-36222.07477355895
13737.62801142073,4538.365249438912,-27004.01419449022,-34054.82727942792,-38446.49803000665,-37535.97736787527,-26910.293329989116,-36137.36166207334
13778.263482840477,4452.802771663996,-27309.495485960902,-34201.29826084355,-38414.11035229091,-37724.916663755976,-26960.495348035736,-36245.72291919267
13617.442681484543,4261.538894359934,-27639.586048076875,-34407.24723425475,-38626.36251763851,-37877.91435455255,-27126.993492483318,-36399.41351406735
13835.59570736834,4484.631655768354,-27052.338666002594,-34123.17891397225,-38430.6729949323,-37649.88185761951,-26985.23872914776,-36227.30508176149
13812.551058834919,4558.124191537403,-26852.26820138314,-34030.57563669392,-38299.423551490734,-37529.718879427775,-26864.427550366825,-36107.81265590342
13795.340215604332,4590.891848908884,-26940.311722792594,-34045.90893339025,-38214.75514349403,-37591.387342379974,-26828.441241793782,-36121.80484793244
13994.24838951211,4554.637319402375,-27049.991732834787,-34182.63455422337,-38233.32944313639,-37718.23349216384,-26869.45669286927,-36181.461653883656
13760.516197742963,4424.594870161399,-27152.630943373555,-34122.32954768295,-38433.6234252004,-37714.94778572891,-27029.8304593361,-36271.427425316266
13698.221885946023,4577.681967935797,-27008.417488147916,-33966.47083359609,-38517.263652952155,-37598.092865716564,-26963.579888770568,-36174.42085438024
13741.76308414496,4526.541176622054,-27084.413419295957,-34100.08956194992,-38259.033949259996,-37598.29403141666,-26835.0350064081,-36117.20038857465
13878.086373577878,4487.135051147348,-27156.631905631057,-34276.60128791348,-38298.86475787935,-37744.87677155456,-26917.66940565937,-36228.24385502862
13968.298014199498,4578.151354569359,-26990.424333861392,-34030.285064015996,-38380.98506700815,-37560.09490014254,-26909.354556721995,-36156.94179021619
13597.92960857506,4406.601715874876,-27341.950218910006,-34194.10099912894,-38535.3462142165,-37646.10441280656,-27039.285247240692,-36250.55089599501
13845.095198761845,4588.231991318702,-27022.901418554953,-34090.79123625651,-38211.80471322593,-37587.81106326712,-26818.718232955725,-36115.54635948496
14045.076256403478,4621.469035323744,-26784.58711917247,-33901.82958863134,-37925.38945977562,-37541.34178654454,-26680.360934777374,-36025.46882933007
13905.310798324443,4559.1523717823475,-26977.035638932663,-34064.818509199446,-38249.33329216639,-37602.4738076298,-26900.36915545096,-36164.87665949782
13893.620835974318,4668.117126001969,-26954.23685958825,-33874.381646440226,-38414.22211101319,-37512.597443175015,-26916.395356225417,-36112.84179840586
13987.29699698651,4745.27534786169,-26756.714493836702,-33866.29031494741,-38236.70455654914,-37441.54124755159,-26772.897156822346,-36012.95185243509
13909.1329466263,4529.223385956691,-27002.561331100624,-34100.4471898612,-38163.16731729118,-37642.774002882725,-26821.176924845808,-36120.66490896522
13696.321987667321,4318.647601443244,-27264.568479605732,-34248.326331177515,-38486.12767292591,-37820.96210968043,-27030.29984596966,-36288.92884122477
13858.774466368493,4594.915162910839,-27017.78286907469,-33912.893702136724,-38579.22268858227,-37491.832672576034,-26976.700362765834,-36148.29166511198
13797.329520860854,4580.498287737166,-27060.87703238452,-33987.66028733972,-38451.23659983118,-37530.90352188391,-26914.227237013252,-36122.318938054916
14004.507840217095,4645.720678057752,-26916.909446347887,-33925.4553825206,-38044.21133330004,-37542.90640865641,-26740.129499450864,-36042.72437604957
14089.93620752528,4669.100602758003,-26780.899081337346,-33964.1686039172,-38059.00818812945,-37556.9656559188,-26776.607546401927,-36067.33364669486
13910.027016404512,4620.619669034442,-27012.127877727497,-33992.48826414207,-38327.83261869343,-37548.114365114496,-26909.712184633278,-36116.03809786298
13797.35187260531,4599.4749187797215,-26955.019170644187,-33974.09277845535,-38408.07538128798,-37531.59642596202,-26894.714164103767,-36105.15279831324
14013.336779276942,4655.846018296006,-26853.341085116994,-33935.58072275886,-38011.398972439645,-37514.13971354243,-26708.18885662423,-36021.49021881702
13968.566235132961,4542.500322163144,-27002.270758422706,-34052.010959626554,-38072.8886214362,-37595.56711859311,-26790.666793664313,-36096.32385925339
14056.408590842319,4713.826443413072,-26762.749464839635,-33890.318440236864,-38290.751074642074,-37479.0474747476,-26839.72887274371,-36058.683521590654
13804.34796861982,4613.310648597557,-26883.6947540873,-33900.08615256383,-38397.48065441616,-37488.92694579684,-26867.780312035124,-36073.033341530965
13735.839871864304,4450.098210584904,-27189.041935091253,-34100.6483555613,-38290.30403975297,-37654.21809604384,-26877.346858661993,-36153.72313901462
13969.236787466622,4541.85212157394,-27096.148085134995,-34104.93989049672,-38198.39366655274,-37709.33749787063,-26845.11564315744,-36139.57448477441
13955.557519859973,4571.848162632962,-27028.914037813433,-34105.36457364137,-38365.11532844488,-37651.714700664845,-26928.28648427564,-36154.326636114914
13894.693719708172,4660.741050331718,-26926.386585996937,-33835.53431457691,-38502.62326033393,-37459.199125671286,-26918.22819927075,-36091.406475473224
13874.398335742753,4598.156165856858,-26839.8853349549,-33822.704413259555,-38178.45591049861,-37472.31959966655,-26768.15858699782,-36025.26766362997
13811.701692545617,4415.564765401455,-27157.682437620457,-34148.6599026513,-38169.31404701639,-37654.84394488859,-26847.73079725871,-36135.461763794636
13798.424756339164,4373.096450936371,-27207.593882989157,-34325.9539396708,-38459.84202144647,-37720.55807358719,-27027.997616290762,-36246.99696862662
13851.420742442697,4644.200759434791,-26968.407865572914,-33951.65162702223,-38434.070460089504,-37521.22521653476,-26924.553742951604,-36107.09740008085
13963.090057741412,4718.207385326313,-26710.71460374768,-33791.523729744404,-38192.58221299436,-37485.70829459528,-26755.954534525223,-36003.65352674169
13976.679918370239,4539.304022706035,-26933.941475622833,-34059.61055274136,-38034.42126922861,-37609.02286875521,-26777.85924409142,-36079.49299567855
13849.207919741622,4430.518082442055,-27177.083751807662,-34078.96716343965,-38282.32446698242,-37591.99083948026,-26929.42642324286,-36153.074938425416
13865.971728083103,4597.060930378549,-27056.45138698237,-33997.58446187788,-38453.76234695463,-37561.79363272114,-26963.66929574839,-36137.38401381779
13721.400644946176,4544.579034397488,-27042.526250186715,-33968.97422897509,-38464.29001859308,-37610.6768978449,-26926.09601331902,-36130.72319397011
13915.436138562696,4483.223495867669,-26983.227072146783,-34047.11592759084,-38100.604784560775,-37609.134627477484,-26791.270290764605,-36083.67277189169
13905.1319843688,4481.927094689261,-26947.508984507203,-34095.50745433658,-38133.663014610174,-37585.374723121495,-26835.146765130376,-36102.91762386771
13808.058358199401,4527.479949889177,-27030.322197714115,-34008.939148061174,-38435.85859964593,-37599.433970383885,-26960.316534080095,-36154.66191228174
13770.39566879221,4529.223385956691,-27038.994674562775,-34120.250835448605,-38367.372854634865,-37608.95581352184,-26911.589731167525,-36137.6298830068
14019.595267724428,4622.899546968883,-26845.137994901896,-33841.01049196845,-38031.403783727146,-37498.49349242372,-26716.593112539427,-36010.22493961155
14011.369825764874,4516.527595106077,-26977.23680463276,-34009.31912771692,-38205.747390478544,-37600.260984928726,-26842.902820456366,-36105.041039590964
13761.76789543246,4488.4761558146665,-27072.678753456923,-34100.62600381685,-38454.32114056601,-37600.79742679565,-26982.57887155758,-36175.381979391816
13716.125633254724,4524.708333576719,-27053.143328802984,-34040.6339216988,-38467.061634905534,-37590.53797609067,-26924.03965282913,-36115.881635651785
13835.014562012502,4493.594705294932,-27175.675591906976,-34034.822468140424,-38335.90159844179,-37627.77598235321,-26872.250660926184,-36120.5755019874
13988.928674331746,4510.157347936314,-26859.398407864384,-33989.806054807435,-38101.364743872255,-37573.03656018216,-26824.373224302915,-36103.45406573464
13973.438915424218,4622.564270802053,-26841.896991955877,-33974.22688892209,-38243.275969419,-37532.177571317865,-26874.21761443825,-36082.733998624564
13814.674474558173,4622.139587657402,-26892.546044891602,-33852.074605473834,-38310.77823767403,-37499.27580347965,-26853.989285706197,-36046.524172606965
13778.263482840477,4508.078635701971,-27118.343367379115,-34042.28795078849,-38201.00882065402,-37595.924746504395,-26823.523858013614,-36080.83410034586
13938.123159184834,4465.453859025701,-27081.239471583307,-34058.35885505186,-38129.326776185844,-37646.73026165131,-26840.7347012442,-36118.183865330684
13838.97082078109,4444.0408878375165,-26875.6928295723,-34050.759261937055,-38353.00068295011,-37558.19500186384,-26918.764641137677,-36120.03906012047
13767.355831546287,4550.3457844669565,-27055.467910226336,-33960.94995271563,-38542.655234653386,-37554.14933611743,-26967.96083068381,-36127.23632183508
13941.252403408576,4667.6253876239525,-26870.484873114216,-33934.217266347085,-38225.7745535105,-37498.6499546349,-26780.49674993715,-36013.84592221331
14027.261916072597,4588.231991318702,-26925.984254596744,-33936.36303381479,-38082.63398201871,-37555.5127925292,-26794.421886732805,-36065.43374841616
13797.217762138578,4457.586044977432,-27039.30759898515,-33968.32602838588,-38229.64140530126,-37590.694438301856,-26908.348728221506,-36132.243112593074
13694.37738589971,4462.704594457698,-27013.96072077283,-33999.26084271203,-38456.89159117837,-37588.01222896722,-26962.596412014536,-36138.43454580719
13811.679340801162,4555.598444413954,-26996.16873218641,-34067.187794111705,-38334.73930773012,-37561.43600480986,-26876.475140628238,-36102.35883025632
13979.76445910507,4552.178627512291,-26864.427550366825,-33915.93353938264,-37969.400044608126,-37524.73444041424,-26736.28499940455,-36027.14521016421
13916.486670552096,4551.195150756258,-27081.82061693914,-34061.30928531996,-38261.604399872354,-37643.10927904955,-26912.930835834843,-36149.27514186801
13857.343954723354,4578.374872013912,-26951.867574675987,-33938.821725704875,-38412.813951112505,-37537.765507431686,-26922.09505106152,-36095.742713897554
13914.497365295574,4675.157925505391,-26713.039185171034,-33919.04043186193,-38235.40815537074,-37519.012393833684,-26794.243072777164,-36016.03639316993
13978.222188737655,4582.062909849037,-26807.430602005792,-33812.847293954765,-37990.634201840665,-37560.564286776105,-26733.84865925892,-36015.52230304746
14031.732264963659,4585.0356918615935,-26985.149322169942,-33925.6565482207,-38134.66884311067,-37520.062925823084,-26836.666683753334,-36066.99837052803
13876.320585765909,4605.353427571467,-26919.010510326687,-33944.47671705207,-38358.298046386015,-37539.66540571039,-26931.99687385522,-36098.961365099116
13695.740842311483,4495.472251829177,-27063.246317296784,-33992.041229252965,-38449.739032952675,-37570.980199692276,-26951.599353742524,-36124.688222967176
13893.553780740951,4511.207879925714,-26992.19012167336,-34069.22180285714,-38204.18276836667,-37598.96458375032,-26834.096233140976,-36081.30348697943
13950.260156424065,4508.458615357711,-26954.549784010625,-33998.322069444905,-38074.609705759256,-37615.77309558071,-26843.349855345474,-36096.793245886955
13819.502451360519,4503.027141455072,-26924.062004573585,-34084.97978269813,-38348.91031371478,-37534.4574492523,-26942.14456583793,-36111.47834199409
13897.219466831622,4665.7478410897065,-26809.218741562217,-33768.881412611176,-38320.97063314565,-37415.16618909433,-26840.98057043321,-36000.18900635112
13866.083486805379,4557.230121759191,-26947.263115318194,-33875.83450982982,-38098.95075547109,-37584.05597019863,-26801.06035483603,-36053.85554478831
13882.64612944676,4459.865922911874,-27232.225505378905,-34107.62209983136,-38184.490881501544,-37676.189860843406,-26902.42551594085,-36146.6823395112
13877.862856133326,4507.251621157125,-27039.821689107623,-34058.26944807404,-38347.5021538141,-37584.190080665365,-26957.388455556447,-36131.393746303766
13806.225515154067,4665.949006789805,-26765.141101496352,-33830.16989590763,-38362.2543051546,-37483.22725096074,-26895.295309459605,-36059.599943113324
13879.092202078367,4595.876287922417,-26903.923082819354,-33979.948935502645,-38186.63664896925,-37558.887905941956,-26825.826087692512,-36060.40460591371
13986.738203375126,4501.2166501541915,-26950.012379886197,-34014.9294155752,-38119.53671211442,-37626.546636408166,-26843.729835001213,-36097.843777876355
14060.655422288826,4633.717791285252,-26730.272380146074,-33828.76173600695,-38212.63172777078,-37513.022126319665,-26855.35274211797,-36050.793355797934
13854.460579688619,4627.615765048953,-26847.954314703264,-33906.52345496696,-38268.35462669786,-37445.74337550919,-26850.41300659335,-36014.04708791341
13969.259139211075,4700.862431628994,-26792.00789833163,-33800.73264845999,-38129.97497677505,-37491.11741675346,-26765.230508474175,-35991.47182601355
13985.464153941173,4552.446848445756,-26895.27295771515,-33948.8129554764,-38042.154972810145,-37539.35248128801,-26770.48316842117,-36035.72828003505
13896.235990075587,4502.356589121412,-27067.202576065374,-34017.29870048746,-38286.45953970665,-37594.605993581536,-26927.750042408712,-36129.89617942526
13919.414749075742,4679.583570907542,-26933.24857154472,-33721.94274925503,-38360.801441765005,-37448.425584843826,-26887.85217855599,-36031.03441369944
13812.126375690268,4584.722767439219,-26852.759939761156,-33840.205829168066,-38174.70081743012,-37540.13479234395,-26809.621072962414,-36021.93725370613
13927.617839290839,4508.391560124345,-26970.263060362704,-34018.25982549904,-38063.38913004269,-37585.86646149951,-26801.68620368078,-36061.99157977004
13996.43886046873,4558.839447359973,-26903.386640952427,-34006.100476515356,-38267.99699878657,-37594.98597323728,-26916.685928903335,-36125.85051367885
13865.591748427361,4598.379683301411,-26857.118529929943,-33882.60708839978,-38416.30082324753,-37475.202974701286,-26939.641170458934,-36083.22573700258
13860.115571035813,4606.336904327501,-26939.931743136854,-33905.89760612221,-38328.88315068283,-37496.41478018937,-26875.871643527946,-36047.932332507655
14014.29790428852,4591.674159964819,-26897.977518794243,-33976.97615349009,-38028.76627788142,-37555.98217916276,-26778.976831314187,-36037.89639924722
14000.663340170782,4552.04451704556,-27021.49325865427,-34046.31126479045,-38168.978770849564,-37609.96164202233,-26880.073771485542,-36106.80682740293
13833.539346878451,4559.934682838283,-26923.257341773195,-33902.92482410966,-38408.99180281065,-37554.03757739515,-26971.760627241212,-36125.6269962343
13887.854085904848,4690.379463479455,-26792.901968109843,-33797.49164551397,-38243.365376396825,-37465.904649007876,-26834.297398841074,-36016.48342805904
13949.030810479024,4573.323377767012,-26918.004681826198,-33924.82953367585,-38069.60291500127,-37547.33205405856,-26782.061372049022,-36035.616521312775
13989.599226665405,4527.926984778283,-27068.811901666155,-34005.76520034852,-38135.4511541666,-37607.949985021354,-26872.78710279311,-36107.835007647875
13897.398280787264,4582.778165671607,-26876.07280922804,-33917.922844639164,-38398.777055594575,-37582.938382975866,-26962.61876375899,-36124.420002033716
13852.225405243089,4645.363050146467,-26796.12061931141,-33815.864779456235,-38286.213670517645,-37517.783047888646,-26872.630640581923,-36046.63593132924
13971.42725842324,4617.311610855057,-26775.132331267876,-33893.4476844606,-38069.20058360107,-37502.58386165903,-26778.596851658447,-36024.12772466275
14041.276459846076,4592.09884310947,-26992.01130771772,-33958.35715035882,-38133.10422099879,-37615.862502558535,-26859.17489041983,-36105.4210192467
14033.341590564442,4650.883931026928,-26904.146600263906,-33858.66837008815,-38358.141584174824,-37529.83063815006,-26926.341882508026,-36091.138254539765
13862.261338503522,4647.687631569819,-26799.540436213072,-33828.873494729225,-38335.566322274964,-37448.47028833274,-26858.817262508546,-36017.69042225962
13866.083486805379,4524.171891709792,-27005.623520091,-34005.184054992686,-38157.378215477256,-37565.034635667165,-26809.10698283994,-36042.32204464937
13972.43308692373,4511.006714225616,-26917.110612047985,-34035.15774430725,-38137.32870070085,-37596.61765058251,-26837.69486399828,-36086.26557424851
13993.555485433995,4600.05606413556,-26877.011582495164,-33886.49629193501,-38282.995019316084,-37565.034635667165,-26923.436155728836,-36106.225682047094
13841.608326626818,4598.111462367948,-26934.23204830075,-33836.003701210466,-38422.64871867284,-37536.9608446313,-26967.402037072425,-36110.986603616075
13866.664632161217,4597.57502050102,-26852.201146149775,-33886.22807100154,-38119.02262199195,-37518.94533860032,-26808.950520628754,-36029.827419498855
14096.50762039514,4650.973338004749,-26879.246756940694,-33901.47196072006,-37966.159041662104,-37564.3640833335,-26770.952555054733,-36029.24627414301
14048.518425049595,4641.518550100154,-26816.863038165935,-33899.52735895245,-38223.11469592032,-37582.11136843102,-26909.04163229962,-36100.19071104416
13922.722807255126,4667.670091112864,-26780.988488315164,-33774.15642430263,-38357.58279056344,-37481.28264919313,-26908.639300899424,-36053.34145466584
13976.344642203409,4682.198725008813,-26809.084631095488,-33829.72286101853,-38162.38500623524,-37456.740433781204,-26788.453970963237,-35989.68368645712
14026.546660250027,4604.906392682361,-26927.414766241884,-33963.9674382171,-38034.823600628806,-37572.45541482633,-26785.905872095333,-36040.64566381522
13992.326139488952,4600.234878091202,-26910.47214394476,-33904.444742732616,-38255.05533874695,-37609.134627477484,-26914.227237013252,-36111.63480420528
13864.630623415784,4621.558442301565,-26813.35381428645,-33843.42448036963,-38364.95886623369,-37499.253451735196,-26929.18055405385,-36067.44540541714
13846.235137729067,4579.604217958953,-26899.877417072945,-33869.26309695996,-38265.605362129856,-37496.14655925591,-26861.298306143082,-36032.37551836676
13951.80242679148,4537.6052901274315,-26916.12713529195,-34001.00427877954,-38086.07615066483,-37586.31349638862,-26812.97383463071,-36051.26274243149
13999.992787837124,4563.846238117962,-26912.819077112566,-33974.070426710896,-38169.336398760846,-37643.98099708331,-26910.0027573112,-36129.158571858236
13858.908576835225,4602.850032192473,-26882.46540814226,-33886.831568101836,-38352.39718584981,-37523.72861191376,-26938.18830706934,-36080.20825150111
13872.140809552768,4614.137663142403,-26866.327448645527,-33838.46239310055,-38284.67140015023,-37481.3944079154,-26862.706466043768,-36020.41733508317
13959.200854206189,4589.662502963842,-26888.79095182311,-33932.473830279574,-38084.39976983068,-37568.588563035555,-26794.846569877456,-36031.7049660331
14011.481584487152,4574.887999878883,-26916.685928903335,-33939.58168501636,-38120.58724410382,-37625.853732330055,-26868.540271346603,-36094.78158888598
13954.819912292947,4649.58752984852,-26841.673474511324,-33822.860875470746,-38336.86272345337,-37537.85491440951,-26937.58480996905,-36084.365675969806
13874.93477760968,4659.914035786872,-26768.62797363138,-33777.66564818211,-38302.55279571447,-37475.404140401384,-26869.41198938036,-36024.32889036285
13923.66158052225,4598.67025597933,-26826.317826070528,-33884.015248300464,-38075.660237748656,-37539.0619086101,-26779.423866203295,-36011.47663730105
14017.561258978994,4570.1270783099035,-26917.289426003626,-33947.53890604245,-38089.9430024556,-37613.78379032419,-26838.164250631842,-36066.238411216546
13928.914240469247,4588.299046552068,-26881.347820919495,-33916.76055392749,-38316.768505188054,-37575.227031138784,-26939.19413556983,-36092.23349001807
13818.45191937112,4613.57886953102,-26821.44514577927,-33837.21069541105,-38350.09495617091,-37506.741286127726,-26904.90655957539,-36040.19862892612
13879.583940456385,4587.606142473954,-26850.278896126616,-33878.784940097925,-38133.59595937681,-37552.361196561,-26809.419907262316,-36018.763305993474
13968.253310710588,4525.17772021028,-26932.555667466604,-33982.184109948175,-38082.20929887406,-37643.824534872125,-26844.579201290515,-36079.9176788232
13908.685911737193,4533.805493570029,-26930.700472676814,-33951.31635085539,-38311.13586558531,-37625.87608407451,-26959.57892651307,-36124.24118807807
13824.419835140687,4601.330113569512,-26834.766785474636,-33844.02797746992,-38383.89079378734,-37522.83454213554,-26935.61785645698,-36058.37059716828
13853.052419787935,4584.47689825021,-26848.289590870096,-33876.10273076328,-38176.46660524209,-37543.085222612055,-26830.184677861296,-36017.75747749299
13929.227164891621,4505.038798456049,-26954.61683924399,-34004.87113057031,-38087.461958821055,-37658.4872792348,-26849.65304728187,-36084.03039980297
13894.783126685994,4497.7521297636185,-26979.62844128948,-34009.8779213283,-38298.01539159005,-37668.74672993979,-26973.34760109754,-36147.44229882268
13792.702709758605,4556.984252570182,-26902.760792107678,-33914.32421378186,-38431.94704436625,-37580.479691085784,-26982.109484924018,-36104.92928086869
13825.984457252558,4572.988101600183,-26876.27397492814,-33915.08417309334,-38251.65787358974,-37568.67797001338,-26876.27397492814,-36045.36188189529
13909.915257682236,4499.830841997962,-26960.674161991377,-34036.38709025229,-38096.492063581,-37667.00329387227,-26847.440224580794,-36073.23450723106
13906.361330313843,4477.300283587013,-26997.57689208709,-34066.71840747815,-38260.64327486078,-37700.06152392167,-26952.20285084282,-36141.116755141826
13787.91943644517,4526.384714410868,-26923.36910049547,-33965.04032195095,-38442.76528868262,-37615.013136269234,-26993.263005407218,-36112.797094916954
13746.412246991666,4541.583900640476,-26893.17189373635,-33941.39217631724,-38316.79085693251,-37584.257135898726,-26899.296271717107,-36048.334663907845
13843.061190016413,4481.368301077879,-26966.597374272034,-34046.981817124106,-38133.30538669889,-37672.770043941746,-26853.65400953937,-36070.8652223188
13871.894940363758,4455.350870531902,-27030.948046558864,-34104.55991084098,-38258.76572832653,-37730.83987603663,-26955.399150299927,-36142.72608074261
13793.686186514638,4534.3195836925015,-26965.189214371352,-34012.47072368512,-38459.439690046274,-37651.49118322029,-27008.953930014843,-36124.01767063352
13759.175093075644,4556.045479303059,-26913.154353279395,-33959.742958515046,-38372.73727330414,-37597.80229303864,-26919.189324282328,-36046.725338307064
13854.818207599905,4498.020350697083,-26975.225147631783,-34042.35500602186,-38162.16148879069,-37667.76325318375,-26841.226439622216,-36037.449364358115
13872.945472353158,4450.634652451832,-27056.74195966029,-34116.29457668002,-38239.94555949516,-37744.206219220905,-26926.923027863864,-36109.26551929302
13790.713404502083,4505.619943811887,-27012.172581216408,-34042.31030253295,-38474.99650418717,-37687.96923017135,-27009.825648048598,-36115.68046995169
13755.62116570725,4565.813191630029,-26930.096975576518,-33959.877068981776,-38440.55246598154,-37613.87319730201,-26935.28258029015,-36041.495030104525
13836.020390512991,4533.179644725281,-26961.836452703054,-34020.271482500015,-38200.67354448719,-37670.75838694077,-26832.35279707346,-36014.091791402316
13893.1290975963,4469.611283494387,-27051.578706691114,-34114.12645746785,-38214.911605705216,-37763.51812643029,-26897.306966460583,-36076.877841577276
13844.40229468373,4516.237022428158,-27027.01413953473,-34056.03427362851,-38460.11024237994,-37710.83506474913,-27006.517589869214,-36107.45502799214
13782.398555564709,4589.215468074735,-26942.72571119377,-33961.64285679375,-38483.82544324701,-37623.41739218443,-26951.75581595371,-36035.482410846045
13832.31000093341,4568.7189184092185,-26956.38262705596,-34008.11213351633,-38249.10977472184,-37661.52711648073,-26842.679303011813,-36002.98297440803
13911.256362349553,4505.485833345155,-27045.096700799073,-34107.64445157581,-38193.81155893941,-37756.83495483815,-26874.46348362726,-36065.21023097161
13865.971728083103,4520.617964341398,-27038.43588095139,-34076.776692483036,-38414.24446275765,-37735.824315050166,-26981.975374457288,-36104.39283900176
13791.763936491483,4604.4370060488,-26946.503156006715,-33970.33768538686,-38495.38129513041,-37638.12484003602,-26961.545880025136,-36046.56887609588
13840.826015570881,4611.209584618758,-26946.81608042909,-33991.683601341676,-38283.218536760636,-37650.86533437554,-26847.104948413962,-36002.60299475229
13944.381647632319,4553.09504903496,-27033.071462282118,-34093.02641070204,-38173.89615462973,-37746.19552447743,-26843.931000701312,-36051.59801859832
13930.23299339211,4564.561493940531,-27043.956761831854,-34084.93507920922,-38369.51862210257,-37751.47053616888,-26958.550746268123,-36109.444333248655
13843.93290805017,4642.770247789651,-26961.948211425333,-33979.166624446705,-38511.183978460314,-37658.46492749035,-26978.62261278899,-36076.721379366085
13866.776390883493,4671.514591159176,-26926.587751697036,-33955.07144392389,-38318.377830788835,-37632.15692426645,-26857.185585163308,-36011.54369253441
13965.660508353772,4615.5011195541765,-27014.698328339855,-34053.70969220516,-38162.94379984663,-37722.61443407708,-26831.436375550795,-36046.47946911806
13977.976319548647,4615.881099209917,-27048.96355258984,-34072.19458486969,-38329.93368267223,-37748.98949253434,-26948.47010951878,-36116.999222874554
13889.396356272264,4688.680730900852,-26971.42535107438,-33974.15983368872,-38502.936184756305,-37658.66609319045,-26989.99965071674,-36093.46283596311
13885.03776610348,4726.6786964748735,-26922.162106294883,-33931.37859480126,-38356.822831251964,-37613.269700201716,-26876.721009817247,-36023.03248918444
13990.761517377081,4681.25995174169,-26991.027830961684,-34014.460028941634,-38157.33351198835,-37685.30937258117,-26812.280930552595,-36021.95960545059
14021.383407280853,4654.147285717402,-27047.10835780005,-34062.76214870955,-38271.52857441051,-37735.91372202799,-26904.32541421955,-36085.90794633722
13943.554633087473,4725.069370874092,-26988.81500826061,-33974.36099938882,-38482.596097301976,-37660.61069495806,-26973.615822031003,-36079.38123695627
13924.689760767194,4789.3082844386445,-26902.872550829954,-33903.86359737678,-38385.07543624347,-37587.85576675603,-26871.35659114797,-35998.579680750336
14018.745901435126,4752.450257831843,-26954.19215609934,-33980.8206535364,-38163.12261380227,-37648.63015993001,-26787.403438973837,-35984.56513697686
14073.418268372807,4709.914888133394,-27035.64191289448,-34062.24805858709,-38231.541303579965,-37722.45797186589,-26872.541233604104,-36060.82928905836
14003.122032060866,4770.108135951536,-26983.942327969355,-33984.620450093804,-38460.222001102215,-37656.85560188957,-26956.449682289327,-36069.8146903294
13966.487522898618,4848.495703756297,-26892.79191408061,-33893.0006495715,-38426.9179018638,-37575.159975905415,-26883.784161065123,-35994.04227662591
14049.792474483547,4819.907822597959,-26927.839449386534,-33959.184164903665,-38194.12448336178,-37625.361993952036,-26785.481188950682,-35976.183232806114
14106.141222255377,4750.997394442248,-27023.25904646624,-34063.969142910144,-38203.40045731073,-37721.4521433654,-26852.69288452779,-36059.242315202035
14059.157855410322,4799.210107232346,-26997.39807813145,-34015.48820918658,-38441.15596308184,-37683.387122558015,-26963.803406215124,-36099.453103477135
13992.259084255587,4872.3003116012,-26906.113553775973,-33916.268815549476,-38465.60877151594,-37588.86159525652,-26918.697585904312,-36032.28611138894
14057.280308876076,4857.324642816144,-26918.22819927075,-33955.18320264616,-38232.301262891444,-37616.84597931457,-26808.21291306173,-35999.764323206466
14146.664934952849,4794.516240896731,-27011.054993993643,-34060.25875333056,-38176.041922097436,-37711.907948482985,-26839.237134365696,-36065.053768760416
14105.828297833003,4813.917555083937,-27005.86938928001,-34034.77776465151,-38400.296974217534,-37695.41236107497,-26956.114406122495,-36116.82040891891
14028.290096317542,4894.383835123042,-26910.539199178125,-33921.6555859632,-38479.779777500604,-37587.94517373385,-26932.153336066407,-36048.759347052495
14066.064544447012,4891.947494977414,-26895.675289115345,-33933.747879713526,-38263.88427780679,-37589.75566503473,-26818.15943934434,-35993.90816615918
14141.65814419486,4807.703770125362,-27006.0258514912,-34059.34233180789,-38167.77177664897,-37702.9001954675,-26837.44899480927,-36060.3599024248
14119.887545095391,4806.340313713588,-27030.00927329174,-34060.8398986864,-38369.42921512476,-37711.282099638236,-26954.974467155276,-36120.15081884275
14025.362017793897,4876.569494792163,-26944.893830405934,-33955.36201660181,-38507.07125748054,-37615.46017115834,-26967.29027835015,-36081.88463233526
14035.755578965614,4892.953323477903,-26917.110612047985,-33943.873219951776,-38330.961862917175,-37599.25515642824,-26861.27595439863,-36025.08884967433
14138.238327293198,4833.073000082136,-26994.760572285722,-34040.67862518771,-38168.64349468273,-37687.566898771154,-26832.17398311782,-36051.95564650961
14138.618306948938,4813.269354494733,-27039.955799574353,-34070.62996275783,-38329.911330927775,-37722.122695699065,-26943.99976062772,-36121.536626998975
14044.293945347543,4881.665692527973,-26963.378723070473,-33966.22496440708,-38507.18301620281,-37629.85469458756,-26983.38353435797,-36089.93126033917
14024.959686393702,4906.565535851185,-26915.38952772493,-33933.032623890955,-38371.46322387019,-37587.96752547831,-26875.93869876131,-36014.67293675816
14118.255867750153,4843.064229853658,-26990.15611292793,-34029.100421559866,-38172.57740170687,-37674.2452590758,-26821.243980079173,-36032.73314627804
14133.432702235306,4794.024502518714,-27060.765273662244,-34084.108064664375,-38291.51103395355,-37732.404498148506,-26932.823888400068,-36111.50069373855
14045.746808737136,4852.5860729916185,-27003.187179945373,-33994.16464497622,-38507.85356853647,-37652.7875843987,-27007.188142202875,-36105.80099890244
14021.383407280853,4904.956210250403,-26914.38369922444,-33916.84996090531,-38413.19393076825,-37577.35044686204,-26906.31471947607,-36023.79244849592
14101.693225108771,4846.551101988685,-26973.213490630806,-34001.764238091026,-38190.70466646012,-37650.97709309782,-26831.346968572972,-36023.7030415181
14146.821397164036,4790.180002472402,-27057.658381182955,-34081.247041374096,-38256.95523702565,-37729.99050974733,-26925.626626685458,-36105.80099890244
14068.50088459264,4838.057439095669,-27013.87131379501,-34010.16849400622,-38491.15681542836,-37670.95955264087,-27021.20268597635,-36122.34128979937
14011.369825764874,4898.250686913811,-26931.907466877397,-33921.58853072984,-38464.558239526545,-37589.085112701076,-26953.00751364321,-36048.93816100814
14086.762259812625,4861.973805662848,-26962.842281203542,-33978.764293046515,-38225.595739554854,-37634.861485345544,-26848.960143203753,-36026.29584387491
14156.052667624077,4800.528860155208,-27044.984942076797,-34070.49585229109,-38219.13608540727,-37723.3520416441,-26905.04067004212,-36094.4686644636
14081.666062076816,4819.57254643113,-27034.524325671715,-34033.59312219538,-38469.49797505116,-37700.106227410586,-27027.103546512553,-36138.54630452947
13999.635159925838,4877.217695381367,-26950.57117349758,-33940.520458283485,-38512.81565580555,-37613.761438579735,-26988.09975243804,-36079.22477474508
14060.83423624447,4861.839695196116,-26949.364179296994,-33967.14138592975,-38274.50135642307,-37630.614653899036,-26864.896937000387,-36032.10729743329
14147.626059964427,4797.421967675921,-27038.815860607134,-34064.527936521525,-38201.03117239847,-37721.18392243194,-26886.17579772184,-36085.08093179237
14101.715576853227,4810.944773071382,-27041.520421686226,-34043.5843519669,-38432.05880308853,-37709.382201359535,-27009.132743970484,-36134.880618438794
14005.133689061844,4882.716224517372,-26961.657638747412,-33945.37078683028,-38531.524065914644,-37618.4776566598,-27001.421392133405,-36090.55710918392
14037.521366777584,4879.765794249272,-26945.8102519286,-33955.898458468735,-38310.8452929074,-37618.45530491535,-26872.78710279311,-36035.907093990696
14126.973048087722,4803.4569386788535,-27042.503898442257,-34072.79808196999,-38191.68814321615,-37720.13339044254,-26873.07767547103,-36080.83410034586
14105.895353066368,4800.193583988379,-27073.326954046126,-34079.95064019569,-38397.4135991828,-37734.68437608294,-26997.86746476501,-36142.524915042515
14010.989846109134,4868.478163299342,-26987.138627426462,-33971.03058946498,-38546.2985689996,-37641.45524995986,-27019.16867723092,-36107.5220832255
14021.092834602934,4880.592808794118,-26950.19119384184,-33952.52334505598,-38371.150299447814,-37619.483485160294,-26907.94639682131,-36048.625236585765
14124.156728286354,4816.890337096494,-27025.87420056751,-34049.46286075865,-38194.79503569544,-37707.906986225484,-26873.70352431578,-36074.73207410957
14131.108120811954,4794.963275785837,-27067.671962698932,-34076.55317503848,-38352.151316660806,-37740.495829641324,-26988.34562162705,-36143.30722609845
14031.665209730294,4854.731840459328,-26999.745011299256,-33979.43484538017,-38546.410327721875,-37657.95083736788,-27040.604000163556,-36124.688222967176
14012.643875198828,4884.057329184691,-26947.017246129188,-33936.47479253707,-38420.100619804936,-37614.56610138012,-26940.691702448334,-36053.69908257712
14105.26950422162,4820.7124853983505,-27019.861581309033,-34034.71070941815,-38216.297413861445,-37699.72624775484,-26884.834693054523,-36065.99254202754
14141.076998839022,4792.683397851396,-27079.294869815694,-34085.33741060941,-38320.881226167825,-37750.82233557968,-26984.67993553638,-36137.4287173067
14053.011125685112,4853.703660214384,-27016.195895218363,-33996.26570895502,-38537.06729853956,-37676.01104688776,-27057.010180593752,-36136.89227543977
14012.219192054177,4896.127271190557,-26946.413749028892,-33932.29501632393,-38456.95864641174,-37612.219168212316,-26964.965696926796,-36062.684483848156
14094.406556416341,4839.532654229719,-27005.735278813278,-34020.003261566555,-38234.067050703416,-37682.046017890694,-26884.14178897641,-36057.8118035569
14150.352972787974,4790.962313528337,-27077.774951192732,-34098.65905030478,-38280.49162393709,-37755.42679493747,-26960.651810246924,-36124.822333433905
14070.892521249358,4832.983593104314,-27039.26289549624,-34017.11988653182,-38520.549359387085,-37698.921584954456,-27059.7370934173,-36139.59683651887
14006.005407095601,4886.49366933032,-26957.611973001003,-33937.8606006933,-38504.14317895689,-37618.76822933772,-26997.688650809367,-36069.47941416257
14073.68648930627,4847.445171766898,-26993.218301918307,-34000.289022956975,-38267.4829086641,-37668.634971217514,-26893.57422513655,-36049.02756798596
14140.384094760908,4780.725214567807,-27086.089800130107,-34097.45205610419,-38255.591780613875,-37759.62892289507,-26938.881211147454,-36115.5240077405
14081.777820799092,4813.269354494733,-27059.89355562849,-34048.21116306915,-38488.22873690471,-37721.966233487874,-27043.755596131756,-36145.00595867705
14000.775098893058,4878.849372726604,-26968.72078999529,-33949.77408048798,-38528.6406908799,-37628.33477596459,-27006.741107313766,-36083.38219921377
14049.792474483547,4855.983538148826,-26978.399095344437,-33983.9722495046,-38294.77438864403,-37647.22200002933,-26886.46637039976,-36036.532942835445
14127.777710888115,4779.317054667122,-27078.11022735956,-34094.032239202534,-38228.99320471206,-37748.542457645235,-26914.406050968893,-36100.30246976644
14081.39784114335,4785.8437640480715,-27087.877939686532,-34076.195547127194,-38462.97126567022,-37743.84859130962,-27045.633142666,-36158.70757802815
13990.426241210253,4857.43640153842,-26993.48652285177,-33967.431958607674,-38555.90981911538,-37642.774002882725,-27032.132689014994,-36101.397705244744
14016.711892689693,4850.954395646381,-26977.303859866126,-33974.02572322199,-38338.852028709895,-37639.86827610353,-26903.096068274506,-36039.77394578147
14103.12373675391,4771.85157201905,-27077.819654681643,-34090.679477534235,-38220.9689284526,-37745.97200703288,-26903.923082819354,-36089.797149872444
14078.045079475056,4761.256845147234,-27105.424059083947,-34093.65225954679,-38416.233768014165,-37758.265466483295,-27026.63415987899,-36152.27027562503
