Fp1,Fp2,C3,C4,P7,P8,O1,O2
13640.464978273509,7710.793043469554,-33268.87288914596,-42578.10623384789,-36954.6755498261,-46624.86721573678,-30993.17473091778,-48312.49097734583
13731.548336928885,7595.323931613438,-33430.878332958026,-42754.01446271115,-36910.12852312667,-46787.185583971215,-30982.736466257153,-48432.564548559734
13701.798165058872,7546.35125951186,-33491.98800229884,-42806.09402729202,-37091.13294972575,-46843.824904420966,-31157.39299743092,-48521.479788002944
13612.45824247101,7660.591025422934,-33328.28382590817,-42625.17900767076,-37149.068671353896,-46675.56097216141,-31184.863291366495,-48400.04276037726
13619.163765807602,7716.425683072292,-33266.525955978155,-42561.454184228685,-36993.12055028922,-46609.690381251625,-31027.395251678856,-48309.8534715001
13705.396795916176,7607.304466641483,-33417.06495488465,-42733.38380257891,-36903.266537578886,-46767.963083739654,-30975.874480709375,-48418.05826640824
13712.974037286525,7545.121913566818,-33504.30381349371,-42822.43315248885,-37059.3487691103,-46857.28065458306,-31136.11413670947,-48527.35829679469
13637.782768938872,7663.407345224303,-33353.25072446474,-42640.24408343364,-37154.030758622976,-46695.38696949327,-31194.206320548812,-48419.33231584219
13619.767262907895,7742.219596173716,-33245.31415049006,-42539.86239908486,-37016.14284707819,-46592.36777929876,-31046.841269354973,-48301.762140007275
13702.938104026092,7647.492903172124,-33371.19917526236,-42688.63561017938,-36889.45315950551,-46725.89710067477,-30957.143718855827,-48376.416966488
13723.166432758146,7550.173407813717,-33504.43792396044,-42812.553681439604,-37014.622928455225,-46851.67036672478,-31094.405781555866,-48505.54299420631
13647.729295221485,7630.527929130546,-33389.50525397125,-42682.57828743199,-37152.04145336646,-46730.702725732655,-31194.072210082082,-48443.472199853924
13599.673044642574,7715.24104061616,-33257.227630284746,-42552.82641086893,-37060.73457726653,-46602.001381158996,-31079.11718834844,-48310.41226511148
13683.08975494978,7660.792191123032,-33345.11468948301,-42649.251836449126,-36897.72330495397,-46688.63674266777,-30950.54995424151,-48337.81550381369
13734.834043363815,7557.7730009285215,-33493.39616219952,-42796.3039632206,-36979.01659953792,-46835.89003513933,-31052.473908957712,-48476.4410229255
13656.535882536875,7604.488146840114,-33428.6878620014,-42715.30124131456,-37151.8179359219,-46768.32071165094,-31198.095524084038,-48463.29819718578
13602.131736532658,7728.473273333701,-33264.73781642173,-42546.478515443625,-37084.472129878064,-46604.102445137796,-31107.123924150936,-48315.10613144709
13667.376478597698,7689.983569381663,-33312.8164187451,-42612.52792030906,-36904.49588352393,-46656.51728588549,-30954.193288587725,-48316.84956751461
13724.529889169919,7554.800218915966,-33488.2552609748,-42805.13290228044,-36960.107023728735,-46838.72870668516,-31037.34177796147,-48477.40214793708
13665.431876830087,7571.139344112796,-33458.81801352716,-42752.159267921365,-37147.77227017549,-46807.21274700317,-31198.229634550768,-48496.31172374627
13593.526314917364,7692.799889183032,-33284.65322073141,-42566.9974168536,-37126.001671076025,-46627.795294260424,-31146.083014736538,-48345.8621318176
13640.50968176242,7683.993301867641,-33295.42676155886,-42598.66983874677,-36943.23145666498,-46646.99544274753,-30984.815178491495,-48320.87288151657
13723.032322291414,7563.964434142642,-33465.63529558603,-42780.545983379605,-36936.41417460611,-46821.31669775447,-31008.17275144729,-48460.72774657342
13690.801106786861,7560.321099796427,-33471.44674914441,-42770.89002977491,-37113.57410115887,-46817.673363408256,-31167.384227202445,-48501.96671509346
13620.08018733027,7698.253714830126,-33291.73872372374,-42575.53578323553,-37127.320423998885,-46627.66118379369,-31144.294875180112,-48351.338309209146
13655.731219736484,7731.915441979819,-33239.72621437624,-42538.431887439714,-36932.770840259895,-46582.95769488307,-30964.631553248353,-48268.94977914689
13728.888479338704,7597.6261612923345,-33425.53626603321,-42732.75795373416,-36898.95265089902,-46768.45482211767,-30965.36916081538,-48402.032065633786
13702.021682503426,7542.5067594655475,-33489.35049645311,-42790.112530006474,-37084.405074644696,-46832.8054944045,-31144.07135773556,-48499.93270634803
13618.73908266295,7663.8990836023195,-33324.484029350766,-42606.64941151731,-37149.44865100964,-46663.647492366734,-31171.74281737123,-48383.10013808014
13618.493213473943,7715.106930149428,-33254.23249652774,-42546.61262591036,-36984.582183907296,-46594.96058165558,-31011.503161371133,-48287.83700321162
13703.027511003913,7599.436652593215,-33401.306975043655,-42716.48588377069,-36892.425941518064,-46749.74641200858,-30960.205907846204,-48387.7716526713
13716.460909421554,7538.7516663970555,-33490.19986274241,-42797.33214346554,-37040.30508283438,-46836.58293921744,-31110.29787186359,-48493.65186615609
13643.3707050527,7652.857321841398,-33342.47718363728,-42630.319908895486,-37138.74216541555,-46682.601771664835,-31171.496948182223,-48394.410120774526
13624.237611798957,7732.429532102291,-33226.65044386988,-42516.6836400847,-37001.2342335265,-46574.01699710095,-31028.71400460172,-48272.32489255964
13706.536734883397,7638.5969088789125,-33351.50728839723,-42664.428670934285,-36874.812766887284,-46706.38402776528,-30941.18457331474,-48344.58808238365
13727.659133393661,7537.432913474192,-33488.970516797366,-42799.92494582236,-37009.258509785956,-46846.57416898897,-31092.528235021622,-48490.50027018789
13654.725391235996,7631.1984814642055,-33370.77449211771,-42660.226542976685,-37143.79365966245,-46723.01372564003,-31190.51828271369,-48421.14280714307
13608.747852891429,7729.255584389638,-33239.05566204258,-42524.84202681089,-37047.52469629344,-46586.31045655137,-31072.29990628957,-48287.300561344695
13687.627159074207,7673.085650573451,-33326.20511367382,-42633.33739439695,-36887.128578082156,-46682.78058562048,-30953.723901954163,-48336.34028867964
13741.360752744766,7563.539750997991,-33469.748016565805,-42777.86377404496,-36960.08467198428,-46831.41968624827,-31053.05505431355,-48474.47406941344
13662.79437098436,7602.45413809468,-33408.97362339182,-42693.46358698173,-37133.757726402015,-46760.45289760267,-31189.043067579638,-48446.9367202445
13599.002492308915,7715.419854571803,-33248.622208669454,-42532.59808213688,-37074.01151347298,-46600.16853811366,-31101.31247059256,-48302.4997475743
13669.857522232238,7684.596798967934,-33292.74455222423,-42593.126606121856,-36893.409418274096,-46650.90699802721,-30951.01934087507,-48305.2490121423
13728.19557526059,7549.011117102042,-33475.35830442409,-42776.41091065537,-36940.035157207865,-46825.87645362335,-31027.439955167767,-48456.72678431592
13670.349260610255,7562.176294586217,-33442.16596390795,-42737.407116580864,-37120.749011129024,-46790.44893866169,-31185.287974511146,-48469.690796099996
13611.83239362626,7706.657970745322,-33256.646484928904,-42537.4931141726,-37091.87055729277,-46602.202546859095,-31128.514543594665,-48311.976887223354
13660.827417472294,7708.982552168674,-33264.53665072163,-42558.81667838296,-36907.40161030312,-46613.26666036447,-30965.525623026566,-48278.71749147386
13736.2422032645,7579.990634917097,-33441.83068774112,-42751.801640010075,-36899.57849974376,-46795.9474677977,-30993.398248362333,-48424.85319672265
13694.824420788816,7561.0587073634515,-33459.82384202765,-42758.1942389243,-37085.14268221172,-46813.806511617484,-31160.276372465658,-48481.581924150225
13619.990780352447,7694.275104317082,-33284.78733119814,-42563.130565062835,-37107.8073510894,-46625.73893377053,-31146.910029281382,-48331.17703571046
13647.595184754753,7728.585032055978,-33242.16255452187,-42532.709840859156,-36929.060450680314,-46591.02667463144,-30980.85891972291,-48260.97020637634
13718.785490844904,7589.9371611997085,-33420.529475275216,-42728.62288100993,-36885.87688039266,-46778.870735033845,-30977.349695843423,-48403.39552204556
13702.80399355936,7542.886739121287,-33488.09879876361,-42782.13295723593,-37064.04263544591,-46838.23696830714,-31151.89446829492,-48494.38947372312
13620.840146641749,7663.496752202124,-33330.1166689535,-42598.222803857665,-37140.23973229405,-46667.58139939087,-31187.858425123504,-48375.54524845425
13633.55828923682,7738.129226938395,-33233.49007767321,-42514.26965168353,-36964.13033773069,-46576.98977911351,-31007.94923400274,-48258.287997041705
13718.919601311638,7628.717437829667,-33384.721980657814,-42680.79014787557,-36869.76127264038,-46733.854321700856,-30948.22537281816,-48362.313015736705
13715.320970454333,7539.332811752894,-33491.0045255428,-42787.51972764966,-37027.81045768386,-46838.706354940696,-31110.96842419725,-48484.88998232961
13628.59620196774,7634.6630018547785,-33362.5266984137,-42637.226597932175,-37151.77323243299,-46703.81357715292,-31196.03916359415,-48403.7755017013
13623.879983887671,7737.190453671272,-33231.05373752758,-42507.340610902385,-37005.14578880618,-46575.000473856984,-31042.28151348609,-48260.590226720604
13710.04595876288,7651.6279758963565,-33355.53060239919,-42646.50257188113,-36873.31520000878,-46699.522042217504,-30944.44792800521,-48326.39376239703
13736.62218292024,7545.524244967013,-33491.831540087645,-42795.34283820901,-36998.552024191864,-46845.925968399766,-31086.04622912958,-48478.139755504104
13650.27739408939,7614.8817080118315,-33394.04265809568,-42675.38102571738,-37149.80627892092,-46742.95148169417,-31200.688326440853,-48430.70935376995
13616.302742517322,7732.764808269121,-33235.72525211874,-42511.8333115379,-37038.472239789044,-46582.980046627534,-31074.110397590448,-48274.87299142755
13703.943932526581,7688.061319358507,-33310.290671621646,-42601.9555451817,-36865.782662127334,-46658.126611486274,-30935.01549184507,-48298.051750427694
13755.509406984975,7571.7428412130885,-33465.81410954167,-42762.03873897061,-36936.45887809502,-46813.0018488171,-31023.43899291027,-48433.39156310458
13680.251083403957,7611.864222510365,-33409.197140836375,-42688.769720646116,-37117.753877372015,-46751.44514458718,-31174.045047050127,-48427.71422001293
13624.237611798957,7733.904747236342,-33237.40163295289,-42515.431942395204,-37057.4488708316,-46582.95769488307,-31090.069543131536,-48278.24810484029
13669.343432109767,7684.99913036813,-33298.44424706033,-42586.93517290773,-36891.88949965114,-46647.84480903683,-30951.26521006408,-48287.52407878925
13741.852491122781,7565.909035910254,-33466.19408919741,-42761.1446691924,-36921.81848547679,-46813.31477323947,-31010.89966427084,-48428.89886246906
13686.286054406888,7574.469754036636,-33441.27189412974,-42730.008689166156,-37102.84526382032,-46787.49850839359,-31169.194718503324,-48449.6859848125
13612.480594215465,7705.76390096711,-33273.723217692765,-42548.08784104441,-37095.312725938886,-46610.56209928538,-31128.738061039217,-48307.014799954275
13661.632080272686,7711.932982436774,-33266.63771470043,-42559.24136152761,-36912.54251152784,-46615.07715166535,-30964.899774181817,-48265.70877620087
13744.020610334946,7585.377405330826,-33434.94635044889,-42742.88329397241,-36892.38123802916,-46791.857098562374,-30986.648021536832,-48404.08842612367
13702.848697048272,7556.744820683578,-33471.73732182233,-42765.726776805735,-37089.94830726961,-46825.74234315662,-31167.4065789469,-48480.57609564973
13622.628286198174,7688.575409480979,-33300.45590406131,-42573.76999542356,-37126.94044434315,-46647.55423635891,-31166.132529512946,-48345.57155913968
13649.539786522364,7732.228366402193,-33240.016787054155,-42520.192863964185,-36930.08863092525,-46587.539802496416,-30979.339001099946,-48249.70492717087
13727.14504327119,7603.795242761999,-33402.201044821864,-42702.247822552665,-36871.86233661918,-46758.77651676852,-30957.635457233842,-48373.62299843109
13710.649455863173,7552.050954347963,-33469.457443887884,-42767.73843380671,-37046.25064685949,-46827.03874433503,-31129.855648261982,-48470.22723796693
13624.572887965785,7664.99431908063,-33312.83877048955,-42588.85742293089,-37120.16786577319,-46658.059556252905,-31165.909012068394,-48351.36066095361
13617.666198929097,7723.511186064624,-33240.75439462118,-42516.81775055143,-36961.76105281842,-46583.15886058317,-31010.27381542609,-48252.87887488352
13699.47358363552,7618.100359213396,-33388.52177721522,-42686.1769182893,-36866.989656327925,-46736.424772313214,-30954.573268243465,-48352.50059992082
13715.991522787992,7545.6807071782005,-33485.43894117343,-42776.32150367755,-37012.32069877633,-46831.41968624827,-31104.262900860656,-48466.65095885408
13633.178309581079,7643.782513592543,-33351.35082618604,-42618.76405701209,-37126.22518852058,-46688.547335689946,-31182.51635819869,-48376.97576009938
13597.750794619418,7720.38194184088,-33243.9953975672,-42513.95672726115,-37003.312945760845,-46580.387244270714,-31048.00356006665,-48257.88566564151
13687.09071720728,7645.32478395996,-33355.48589891027,-42642.412202645806,-36866.94495283901,-46701.24312654056,-30950.371140285868,-48329.43359964295
13728.62025840524,7551.559215969946,-33479.42632191495,-42769.75009080769,-36983.106968773245,-46835.89003513933,-31080.368886037933,-48464.88517104211
13673.32204262281,7646.218853738172,-33353.87657330949,-42621.066286690984,-37104.49929291002,-46697.6221439388,-31168.278296980658,-48380.75320491233
13621.041312341848,7744.030087474595,-33220.81663856705,-42481.21142163413,-37018.84740815728,-46566.21623828605,-31063.135691062893,-48250.2860725267
13690.510534108942,7684.708557690211,-33302.57931978456,-42581.68251296074,-36860.284132991335,-46657.009024263505,-30940.044634347516,-48285.691235743914
13742.67950566763,7569.597073745379,-33460.80731878368,-42745.96783470724,-36935.38599436116,-46815.013505818075,-31035.196010493757,-48426.48487406789
13669.075211176303,7601.135385171818,-33406.17965533491,-42679.82902286399,-37112.791790102936,-46759.80469701347,-31184.997401833225,-48427.35659210165
13605.484498200954,7718.236174373171,-33243.07897604453,-42504.56899458993,-37061.80746100038,-46593.93240141063,-31108.979118940726,-48285.691235743914
13674.864312990227,7701.785290454065,-33272.91855489237,-42552.289969002006,-36874.09751106471,-46635.28312865295,-30944.045596605018,-48274.47066002735
13739.706723655072,7572.636910991301,-33448.02212095525,-42731.886235700396,-36908.13921787014,-46809.559680170976,-31008.060992725015,-48420.85223446515
13694.936179511093,7588.0596146654625,-33422.80935320966,-42690.96019160273,-37083.421597888664,-46772.1875634417,-31159.87404106546,-48428.96591770243
13621.577754208774,7716.738607494665,-33254.12073780545,-42507.407666135754,-37079.28652516443,-46602.87309919275,-31126.055851704583,-48290.13923289052
13656.290013347867,7715.509261549624,-33249.40451972539,-42522.87507329883,-36895.86811016418,-46609.28804985143,-30963.201041603214,-48254.19762780638
13734.655229408174,7587.813745476455,-33423.92694043242,-42710.54031974558,-36878.590211700226,-46785.10687173687,-30980.344829600435,-48391.325580039695
13697.57368535682,7554.755515427055,-33466.305847919684,-42736.334232847,-37075.307914651385,-46816.6004796744,-31164.389093445432,-48463.7899355638
13624.751701921428,7692.688130460755,-33273.41029327039,-42539.03538454001,-37100.52068239697,-46633.249119907516,-31161.75158759971,-48326.57257635267
13651.618498756707,7735.536424581579,-33226.181057236325,-42500.70214279916,-36921.863188965704,-46587.115119351765,-30989.553748316022,-48244.653432923966
13737.225680020534,7620.134367958828,-33388.25355628176,-42674.419900705805,-36856.61844690066,-46755.69197603369,-30964.519794526077,-48365.06228030471
13722.250011235477,7559.896416651776,-33457.70042630439,-42743.285625372606,-37025.37411753823,-46826.27878502355,-31132.98489248573,-48458.291406427794
13635.70405670453,7670.962234850197,-33300.09827615002,-42571.82539365595,-37109.19315924563,-46665.99442553454,-31183.11985529898,-48351.00303304232
13650.389152811666,7754.624814346411,-33193.83808300949,-42474.192973875164,-36932.1673431596,-46563.93636035161,-31006.831646779974,-48230.10244728356
13737.560956187363,7649.795132851021,-33347.84160230656,-42638.50064736613,-36830.489257632405,-46715.39178078077,-30942.905657637795,-48326.013782741284
13746.38989524721,7561.282224808005,-33457.789833282215,-42744.17969515082,-36982.99521005097,-46823.86479662237,-31101.580691526022,-48448.926025501016
13652.043181901357,7644.944804304219,-33338.49857312424,-42609.823359229966,-37121.19604601813,-46704.81940565341,-31203.370535775488,-48385.804699159235
13626.450434500031,7739.425628116803,-33213.52996987462,-42485.77117750301,-36994.61811716773,-46583.8964681502,-31066.39904575337,-48257.34922377458
13705.2850371939,7655.785400365044,-33329.6696340644,-42618.808760501,-36852.639836387614,-46697.73390266108,-30957.970733400674,-48310.21109941138
13738.455025965575,7546.820646145421,-33469.79272005471,-42756.40609936787,-36964.286799941874,-46834.97361361666,-31083.76635119514,-48449.17189469003
13670.952757710547,7624.6270685943455,-33362.34788445805,-42628.01767921659,-37105.97450804407,-46723.05842912894,-31190.160654802403,-48394.49952775235
13622.360065264711,7738.553910083046,-33212.72530707423,-42476.18227913169,-37014.13119007721,-46570.8430493883,-31077.217290069737,-48246.73214515831
13691.605769587251,7683.255694300616,-33291.11287487899,-42577.77095768106,-36852.662188132075,-46651.53284687196,-30950.259381563592,-48273.375424549035
13757.722229686051,7578.627178505323,-33439.10377491758,-42731.08157290001,-36913.95067142852,-46805.134034768824,-31034.301940715548,-48413.25264135035
13695.204400444556,7624.202385449695,-33383.93966960188,-42651.352900427926,-37084.67329557816,-46737.18473162469,-31171.474596437765,-48401.38386504458
13624.125853076679,7739.135055438884,-33224.12469674643,-42480.272648367005,-37043.61314101376,-46570.8430493883,-31102.09478164849,-48253.77294466173
13677.099487435758,7712.33531383697,-33260.53568846413,-42537.0907827724,-36866.40851097208,-46617.446436577615,-30951.287561808535,-48242.32885150061
13744.19942429059,7582.0693471514405,-33438.79085049521,-42721.3809158064,-36892.06831360678,-46792.37118868485,-31005.244672923647,-48391.30322829524
13692.097507965269,7582.315216340449,-33425.33510033311,-42696.793996905566,-37077.43133037464,-46778.82603154493,-31170.334657470547,-48426.21665313443
13619.633152441163,7717.81149122852,-33243.660121400375,-42500.478625354604,-37068.736501781525,-46596.86047993428,-31122.613683058466,-48278.44927054039
13651.618498756707,7720.873680218898,-33239.65915914287,-42510.492206870586,-36886.905060637604,-46597.93336366813,-30959.08832062344,-48232.53878742919
13739.036171321413,7600.040149693507,-33410.69470771488,-42696.61518294993,-36862.42990045904,-46771.96404599715,-30970.152434128817,-48368.23622801736
13708.838964562294,7573.419222047237,-33440.869562729546,-42715.34594480347,-37043.031995657926,-46799.38963644381,-31138.192848943814,-48435.49262708338
13619.186117552057,7691.414081026803,-33273.499700248205,-42536.040250783,-37088.96483051358,-46630.96924197308,-31152.185040972836,-48309.42878835545
13645.047085886847,7738.509206594134,-33216.390993164896,-42485.681770525196,-36913.056601650314,-46574.97812211253,-30984.6140127914,-48220.02181053422
13712.884630308705,7599.816632248954,-33396.4342947524,-42679.314932741516,-36859.635932402125,-46755.60256905587,-30969.88421319535,-48349.14783825253
13707.60961861725,7545.6807071782005,-33462.57310659565,-42743.4420875838,-37022.35663203676,-46823.50716871109,-31130.88382850693,-48444.76860103233
13639.012114883913,7674.158534307306,-33288.676534733364,-42554.458088214174,-37090.842377047826,-46647.88951252574,-31158.130604997947,-48325.07500947416
13625.377550766178,7731.200186157249,-33207.942033760795,-42478.84213672187,-36941.48802059746,-46564.62926442972,-31006.831646779974,-48219.7312378563
13710.895325052183,7633.791283821021,-33349.80855581863,-42635.37140314238,-36836.74774607989,-46709.89325164476,-30943.285637293535,-48311.08281744514
13723.05467403587,7547.334736267893,-33462.66251357347,-42742.927997461324,-36983.375189706705,-46822.635450677335,-31096.372735067933,-48438.15248467356
13636.821643927295,7635.087684999429,-33338.096241724044,-42602.6037457709,-37104.454589421104,-46694.33643750387,-31183.03044832116,-48362.156553525514
13606.803251123816,7724.405255842836,-33216.458048398265,-42482.08313966789,-36983.91163157364,-46575.93924712411,-31051.19985952376,-48236.00330781977
13686.151943940156,7643.4695891701695,-33329.848448020035,-42612.10323716441,-36844.749670594894,-46694.11292005932,-30948.65005596281,-48299.37050335056
13717.690255366595,7529.989782570575,-33476.81116781368,-42765.32444540554,-36960.68816908457,-46839.622776463366,-31081.4864732607,-48445.014470221344
13653.853673202238,7606.097472440895,-33373.52375668571,-42636.42193513178,-37104.43223767665,-46728.26638558703,-31192.664050181396,-48391.14676608405
13606.244457512434,7720.940735452264,-33227.45510667028,-42483.49129956857,-37014.220597055035,-46576.40863375767,-31081.732342449708,-48241.300671255674
13688.27535966341,7684.865019901397,-33281.546328252116,-42564.35991100787,-36840.90517054858,-46647.33071891436,-30941.296332037015,-48261.149020331985
13753.609508706273,7578.984806416608,-33431.68299575842,-42718.78811344959,-36901.18782534455,-46800.060188777476,-31020.53326613108,-48398.321676054205
13692.030452731902,7618.3462284024035,-33375.13308228649,-42647.62015910389,-37067.127176180744,-46741.00687992655,-31158.957619542794,-48391.72791143989
13609.060777313804,7723.377075597892,-33229.95850204927,-42482.82074723492,-37042.80847821337,-46582.421253016146,-31101.96067118176,-48257.438630752404
13659.061629660324,7694.208049083716,-33265.676589688854,-42536.46493392765,-36864.10628129319,-46621.58150930185,-30947.577172228954,-48240.45130496637
13731.52598518443,7570.602902245868,-33431.5935887806,-42714.56363374754,-36880.199537301014,-46793.37701718533,-30996.058105952518,-48379.54621071175
13694.846772533272,7581.331739584415,-33419.14366711899,-42680.90190659784,-37055.7948417419,-46769.214781429146,-31151.916820039372,-48407.552946514246
13617.59914369573,7708.647276001844,-33239.167420764854,-42491.38146536129,-37057.11359466476,-46587.83037517433,-31121.049060946592,-48263.71947094434
13659.910995949627,7730.2837646345815,-33219.22966471072,-42480.51851755602,-36872.24231627492,-46575.581619212826,-30952.963942642684,-48211.081112752094
13735.996334075491,7597.26853338105,-33399.764704676236,-42677.52679318509,-36851.7010631205,-46756.04960394497,-30971.60529751841,-48350.7124603644
13709.822441318327,7572.368690057838,-33435.61690278255,-42704.147720831366,-37034.58303625382,-46789.711331094666,-31141.389148400922,-48423.35562984415
13630.674914202085,7697.717272963199,-33265.63188619994,-42518.382372663305,-37079.84531877581,-46617.11116041079,-31152.20739271729,-48294.38606433703
13644.756513208928,7736.564604826523,-33220.25784495567,-42478.328046599396,-36913.88361619516,-46570.17249705464,-30992.928861728775,-48213.87508080901
13726.966229315547,7610.612524820867,-33376.38477997599,-42655.622083618895,-36842.22392347144,-46738.97287118112,-30960.384721801845,-48332.115808977585
13722.00414204647,7553.168541570729,-33443.79764125319,-42717.067029126534,-37001.16717829313,-46805.69282838021,-31116.06462193306,-48418.68411525299
13623.03061759837,7647.738772361133,-33308.815456487595,-42561.99062609561,-37103.58287138735,-46661.18880047665,-31177.911898840895,-48322.0575239727
13619.230821040968,7720.046665674051,-33204.8351412815,-42462.324197569396,-36951.1216224577,-46562.66231091766,-31021.986129520672,-48208.35419992855
13715.656246621162,7637.166397233773,-33333.84941027754,-42595.65235324531,-36821.50385636138,-46691.833042124876,-30931.707433665688,-48280.90796243048
13733.582345674318,7549.212282802139,-33448.983245966825,-42714.42952328081,-36962.833936552284,-46808.82207260395,-31081.19590058278,-48410.548080271255
13654.166597624613,7640.295641457516,-33318.91844498139,-42569.52316397705,-37083.086321721836,-46674.37632970528,-31164.813776590083,-48331.132332221554
13634.161786337112,7746.108799708939,-33172.358056587946,-42432.395211743744,-36950.98751199097,-46539.39414493968,-31021.784963820573,-48190.24928691975
13709.33070294031,7663.139124290839,-33287.134264365945,-42565.790422653015,-36807.57871956572,-46656.7631550745,-30917.894055592307,-48252.40948824996
13733.783511374417,7540.651564675756,-33450.86079250107,-42730.768648477635,-36929.68629952506,-46815.37113372936,-31053.99382758067,-48406.569469758215
13659.106333149235,7605.6951410407,-33360.78326234618,-42625.38017337086,-37092.13877822623,-46722.38787679528,-31185.399733233422,-48368.28093150627
13613.352312249222,7719.063188918018,-33208.500827372176,-42464.35820631483,-37012.745381920984,-46567.534991208915,-31082.5370052501,-48226.325002470614
13690.264664919934,7677.801868653521,-33272.0021333697,-42539.772992107035,-36833.26087394487,-46636.601881575814,-30936.177782556748,-48244.76519164624
13751.53079647193,7560.254044563061,-33426.89972244498,-42705.71234294323,-36893.36471478519,-46798.45086317669,-31022.43316440978,-48387.95046662694
13685.503743350953,7585.64562626429,-33387.96298360384,-42644.9155980248,-37076.13492919623,-46751.15457190926,-31176.436683706845,-48390.49856549485
13634.072379359292,7729.322639623004,-33205.32687965952,-42451.193028830654,-37026.42464952763,-46561.231799272515,-31098.183226368816,-48227.82256934912
13687.269531162923,7709.876621946886,-33235.121755018445,-42491.828500250405,-36844.07911826124,-46587.78567168542,-30935.79780290101,-48201.671028336415
13757.811636663871,7578.157791871762,-33412.99693739378,-42681.483051953684,-36861.91581033657,-46768.097194206384,-30987.5644430595,-48351.15949525351
13708.056653506357,7575.408527303759,-33408.05720186916,-42672.54235417156,-37048.03878641591,-46766.286702905505,-31159.091730009524,-48398.34402779866
13628.395036267644,7696.242057829149,-33240.82144985455,-42489.2804013825,-37060.064024932864,-46592.50188976549,-31136.717633809763,-48263.384194777514
13663.867254718216,7712.648238259344,-33227.45510667028,-42487.78283450399,-36879.283115778344,-46583.74000593901,-30971.761759729598,-48212.26575520823
13749.697953426596,7589.9371611997085,-33389.16997780442,-42670.4189384483,-36839.74287983691,-46755.803734755966,-30972.007628918607,-48344.163399239
13728.061464793858,7562.332756797405,-33430.92303644693,-42695.519947471614,-37017.930986634616,-46787.677322349235,-31138.706939066287,-48408.55877501473
13647.751646965939,7688.8436304144425,-33262.56969720956,-42500.009238721046,-37077.72190305256,-46612.30553535289,-31157.236535219734,-48280.14800311899
13656.692344748062,7730.90961347933,-33206.15389420437,-42460.06667137941,-36904.47353177948,-46560.9412265946,-30996.102809441425,-48196.53012711169
13736.778645131428,7607.483280597125,-33366.95234381585,-42637.04778397653,-36832.3444524222,-46727.126446619804,-30961.390550302334,-48309.2052709109
13741.450159722586,7553.8390939043875,-33440.75780400727,-42698.93976437328,-36991.421817710616,-46795.098101508396,-31114.611758543466,-48403.48492902338
13654.300708091345,7656.321842231971,-33291.179930112354,-42540.48824792961,-37082.81810078837,-46644.80497179091,-31167.518337669175,-48303.39381735252
13636.441664271553,7720.784273241076,-33204.3881063924,-42455.73043295508,-36945.06429971031,-46556.38147072571,-31024.84715281095,-48200.06170273563
13725.37925545922,7626.124635472851,-33338.40916614642,-42607.38701908434,-36828.70111807598,-46691.09543455785,-30944.291465794024,-48279.76802346326
13733.202366018579,7525.698247635156,-33467.87047003156,-42744.537323062104,-36980.00007629396,-46818.76859888656,-31098.80907521356,-48416.15836812954
13647.192853354556,7612.467719610659,-33339.66086383592,-42603.36370508238,-37109.39432494573,-46697.46568172761,-31192.105256570016,-48349.170189996985
13618.046178584837,7714.101101648939,-33201.772952291125,-42471.01902616251,-36986.14680601917,-46564.316340007346,-31055.46904271472,-48214.6797436094
13701.708758081051,7649.862188084387,-33297.37136332648,-42590.8020246985,-36829.639891343104,-46670.80005059243,-30936.89303837932,-48269.687386713915
13757.074029096846,7557.30361429496,-33429.7383939908,-42727.95232867626,-36917.97398543048,-46799.7472643551,-31039.889876829373,-48395.21478357491
13680.139324681679,7614.389969633815,-33346.7240150838,-42622.49679833613,-37077.23016467454,-46707.546318476954,-31160.969276543772,-48358.75908836831
13630.049065357336,7731.714276279721,-33192.13935043089,-42457.18329634468,-36996.51801544643,-46546.18907525409,-31056.318409004023,-48212.46692090832
13691.3822521427,7673.37622325137,-33269.92342113536,-42550.36771897885,-36831.51743787735,-46621.022715690466,-30922.900846350298,-48238.439647965395
13745.071142324347,7542.5067594655475,-33438.500277817286,-42725.71715423073,-36895.3093165528,-46790.2924764505,-31010.56438810401,-48396.66764696451
13687.358938140744,7572.748669713577,-33394.17676856241,-42670.083662281475,-37068.401225614696,-46737.564711280436,-31161.908049810896,-48406.39065580257
13624.394074010144,7705.585087011467,-33217.95561527677,-42478.79743323296,-37027.29636756139,-46554.92860733612,-31089.39899079788,-48249.190837048394
13670.952757710547,7688.038967614051,-33243.19073476681,-42518.874111041325,-36847.45423167398,-46578.50969773647,-30930.142811553815,-48218.45718842235
13747.753351658983,7566.311367310449,-33417.35552756256,-42699.07387484001,-36851.92458056505,-46747.04185092948,-30970.13008238436,-48361.195428513936
13704.502726137964,7561.684556208201,-33415.23211183931,-42690.53550845808,-37039.05338514488,-46744.24788287257,-31136.11413670947,-48409.20697560394
13610.625399425675,7671.051641828018,-33255.595952939504,-42520.818712808934,-37067.17187966965,-46584.857593161774,-31131.55438084059,-48289.826308468146
13638.162748594612,7684.6638542013,-33234.786478851616,-42521.77983782051,-36890.50369149491,-46571.75947091097,-30977.662620265797,-48243.9381771014
13742.47833996753,7585.422108819736,-33385.83956788058,-42690.02141833561,-36832.947949522495,-46720.689144216674,-30959.714169468185,-48351.539474909245
13701.03820574739,7530.548576181958,-33450.50316458978,-42733.54026479009,-37016.65693720066,-46777.79785129998,-31136.851744276497,-48442.68988879799
13613.642884927141,7647.537606661035,-33282.14982535241,-42552.60289342438,-37080.627629831746,-46606.78465447243,-31164.523203912166,-48324.85149202961
13632.88773690316,7705.674493989289,-33211.25009194018,-42494.756578774046,-36905.68052598006,-46534.96849953753,-30992.906509984317,-48224.76038035875
13728.642610149696,7597.939085714708,-33361.54322165766,-42667.13323201337,-36816.161789436555,-46687.76502463401,-30944.336169282935,-48330.52883512126
13728.419092705142,7531.375590726804,-33447.46332734386,-42750.50523883167,-36972.60164887925,-46773.79688904249,-31105.671060761342,-48436.65491779506
13641.2696410739,7638.8874815568315,-33306.24500587523,-42589.90795492029,-37080.15824319819,-46625.89539598172,-31170.066436537083,-48340.430657914956
13626.830414155773,7717.587973783967,-33205.99743199318,-42489.302753126954,-36934.447221094044,-46519.79166505238,-31016.308786429025,-48224.53686291419
13705.396795916176,7620.402588892292,-33342.03014874818,-42643.75330731313,-36815.82651326973,-46659.110088242305,-30941.430442503744,-48310.97105872286
13736.152796286678,7539.355163497349,-33451.57604832364,-42753.343910377494,-36944.28198865437,-46774.042758231495,-31077.06082785855,-48433.19039740448
13655.194777869556,7619.486167369625,-33333.64824457744,-42618.38407735635,-37082.34871415481,-46655.22088470708,-31175.967297073283,-48368.92913209547
13619.320228018789,7718.079712161984,-33192.541681831084,-42473.58947677487,-36966.521974387404,-46518.6293743407,-31048.405891466846,-48231.845883351074
13702.781641814905,7649.795132851021,-33290.68819173434,-42588.54449850851,-36810.775019022825,-46616.15003539921,-30929.606369686888,-48269.396814035994
13753.900081384192,7551.425105503215,-33439.50610631777,-42738.34588984798,-36898.55031949882,-46762.73277553711,-31039.107565773436,-48407.30707732524
13667.667051275617,7593.178164145728,-33368.31580022762,-42655.71149059671,-37079.17476644216,-46690.80486187993,-31183.969221588282,-48390.833841661675
13625.377550766178,7718.035008673073,-33207.5397023606,-42490.979133961104,-37002.731800405,-46524.06084824334,-31085.554490751565,-48238.17142703193
13693.975054499515,7680.528781477068,-33265.2519065442,-42554.21221902516,-36822.241463928396,-46579.761395425965,-30936.31189302348,-48236.31623224214
13757.67752619714,7557.951814884164,-33427.57027477864,-42734.546093290584,-36872.219964530464,-46752.56273180994,-31015.772344562098,-48389.29157129426
13704.726243582518,7590.004216433074,-33387.47124522582,-42673.7717001166,-37049.78222248342,-46705.4229027537,-31163.96441030078,-48396.53353649778
13635.301725304333,7715.486909805169,-33221.10721124497,-42487.55931705944,-37025.17295183813,-46528.64295585668,-31107.213331128758,-48245.74866840228
13685.257874161945,7706.121528878395,-33235.00999629617,-42521.44456165368,-36838.40177516959,-46553.475743946525,-30950.03586411904,-48223.97806930281
13762.147875088202,7583.321044840938,-33403.76566693374,-42693.68710442628,-36835.67486234604,-46721.51615876152,-30979.204890633213,-48355.27221623328
13716.527964654919,7572.279283080016,-33413.891007171995,-42686.06515956702,-37023.76479193745,-46723.3266500624,-31140.49507862271,-48398.38873128757
13620.907201875116,7677.712461675699,-33254.18779303882,-42521.377506420315,-37057.6500365317,-46563.31051150686,-31137.432889632335,-48278.44927054039
13643.571870752798,7692.28579906056,-33231.81369683906,-42513.04030573849,-36881.98767685743,-46547.84310434379,-30979.85309122242,-48224.9838978033
13741.517214955953,7581.354091328871,-33380.0281143222,-42685.28284851109,-36822.26381567286,-46706.45108299865,-30961.859936935896,-48338.910739292
13712.772871586427,7531.286183748983,-33437.11446966106,-42732.22151186723,-37003.91644286113,-46758.240074901594,-31127.73223253873,-48421.522786798814
13637.045161371847,7661.127467289862,-33262.033255342634,-42543.23751249761,-37058.34294060981,-46584.87994490623,-31146.217125203268,-48299.03522718373
13656.066495903313,7731.937793724274,-33182.99748694867,-42470.54963952895,-36874.07515932026,-46506.425321868104,-30972.4099603188,-48192.52916485419
13740.332572499821,7614.479376611635,-33340.71139582532,-42650.369423671895,-36797.54278630528,-46670.84475408134,-30935.26136103408,-48305.87486098705
13743.014781834458,7546.977108356608,-33424.39632706599,-42728.68993624329,-36957.76009056093,-46756.96602546764,-31095.635127500907,-48416.94067918548
13651.41733305661,7648.901063072809,-33286.91074692139,-42569.634922699326,-37067.685969792125,-46614.093674909316,-31160.32107595457,-48326.39376239703
13625.757530421917,7716.738607494665,-33198.219024922735,-42483.89363096877,-36941.48802059746,-46524.68669708809,-31024.19895222175,-48218.434836677894
13716.058578021357,7629.0303622520405,-33313.79989550113,-42616.03714418854,-36806.90816723206,-46642.14511420073,-30933.629683688843,-48285.02068341025
13735.884575353215,7528.8274918588995,-33445.58578080962,-42747.398346352384,-36941.93505548657,-46771.40525238577,-31078.580746481508,-48421.63454552109
13658.905167449138,7612.870051010854,-33324.57343632858,-42610.62802203036,-37083.421597888664,-46648.962396259594,-31179.275355252666,-48359.13906802405
13633.871213659193,7724.785235498576,-33177.07427466801,-42463.77706095899,-36962.00692200744,-46499.362170620225,-31041.253333241148,-48208.89064179548
13714.315141953844,7658.624071910867,-33278.3053253061,-42575.40167276879,-36808.22692015492,-46599.29682007991,-30923.571398683955,-48251.98480510531
13756.023497107446,7541.992669343075,-33429.71604224635,-42735.50721830216,-36905.83698819125,-46756.20606615616,-31039.465193684722,-48402.27793482279
13681.927464238104,7589.423071077236,-33355.865878566015,-42634.924368253276,-37073.58683032833,-46677.52792567348,-31176.012000562194,-48379.74737641184
13641.090827118258,7720.471348818702,-33183.77979800461,-42455.50691551053,-36984.73864611848,-46501.28442064338,-31071.24937430017,-48217.78663608869
13704.592133115786,7679.992339610141,-33239.90502833188,-42533.40274493727,-36805.99174570939,-46559.421307971636,-30924.55487543999,-48220.31238321214
13767.489942013019,7562.243349819583,-33400.61407096554,-42697.39749400586,-36856.350225967195,-46717.001106381555,-30998.98618447616,-48353.84170458814
13720.90890656816,7592.6417222788,-33365.61123914853,-42642.63572009036,-37027.83280942831,-46671.04591978144,-31144.02665424665,-48355.451030188924
13632.17248108059,7693.04575837204,-33217.508580387665,-42475.08704365338,-37022.110762847755,-46517.623545840215,-31103.458238060266,-48225.38622920349
13679.871103748215,7683.814487911998,-33223.00710952367,-42503.8313870229,-36844.77202233935,-46537.65070887217,-30948.247724562614,-48198.56413585712
13770.350965303298,7575.140306370296,-33385.437236480386,-42681.86303160942,-36828.5446558648,-46705.28879228697,-30972.968753930185,-48332.451085144414
13731.436578206609,7571.429916790715,-33391.36044876104,-42674.21873500571,-37007.649184185175,-46707.85924289933,-31135.510639609176,-48377.64631243305
13646.522301020897,7692.218743827194,-33222.33655719001,-42495.673000296716,-37033.308986819866,-46539.93058680661,-31126.949921482796,-48249.03437483721
13668.13643790918,7713.609363270923,-33202.59996683597,-42487.11228217033,-36861.893458592116,-46524.68669708809,-30971.27002135158,-48197.759473056736
13740.19846203309,7579.744765728089,-33378.82112012162,-42679.40433971934,-36824.92367326304,-46704.126501575294,-30970.197137617724,-48323.24216642883
13735.973982331036,7549.234634546595,-33421.98233866481,-42716.06120062604,-36992.807625866844,-46741.945653193674,-31129.25215116169,-48392.778443429284
13653.674859246596,7670.626958683367,-33248.421042969356,-42533.7380211041,-37052.08445216232,-46572.899409878184,-31150.866288049972,-48273.107203615575
13657.765228481918,7723.757055253632,-33175.10732115595,-42463.084156880876,-36885.31808678128,-46499.69744678705,-30984.904585469318,-48174.91599022341
13748.423903992641,7612.423016121747,-33323.45584910582,-42630.11874319539,-36797.54278630528,-46656.47258239658,-30933.40616624429,-48279.812726952165
13762.237282066022,7551.894492136776,-33404.81619892314,-42702.27017429712,-36939.87869499668,-46737.4306008137,-31079.854795915464,-48380.30617002323
13671.936234466582,7654.332536975448,-33269.96812462427,-42546.00912881007,-37050.85510621728,-46592.904221165685,-31151.290971194623,-48291.59209628011
13656.647641259151,7733.591822813967,-33160.98101866019,-42437.78198215747,-36911.42492430507,-46486.10758615823,-31009.111524714415,-48174.37954835648
13727.010932804458,7627.555147117991,-33305.19447388584,-42601.575565525956,-36800.157940406556,-46635.216073419586,-30933.875552877853,-48263.76417443326
13752.067238338857,7528.671029647712,-33433.71700450385,-42733.24969211217,-36934.40251760513,-46762.4869063481,-31074.132749334905,-48396.689998708964
13667.376478597698,7603.974056717641,-33326.40627937392,-42602.62609751536,-37074.682065806635,-46645.49787586903,-31179.722390141775,-48339.64834685902
13639.570908495298,7717.364456339415,-33176.64959152336,-42449.650758463235,-36954.31792191481,-46497.79754850835,-31046.126013532405,-48193.02090323221
13712.638761119695,7650.420981695769,-33271.95742988079,-42569.14318432131,-36804.74004801989,-46604.370666071256,-30935.17195405626,-48242.97705208982
13770.261558325477,7550.106352580351,-33412.214626337845,-42715.43535178129,-36883.21702280248,-46749.433487586204,-31035.196010493757,-48381.71432992391
13695.830249289305,7592.686425767712,-33345.31585518311,-42633.7620775416,-37057.225353387046,-46678.42199545169,-31173.128625527457,-48362.76005062581
13637.268678816401,7709.653104502333,-33187.95957421775,-42466.66043599373,-36994.03697181189,-46514.963688250034,-31088.259051830657,-48214.813854076136
13702.960455770548,7676.349005263925,-33231.94780730579,-42526.630166367315,-36814.59716732468,-46562.05881381736,-30937.921218624262,-48205.53788012718
13765.72415420105,7549.9051868802535,-33406.00084137927,-42708.394552277874,-36861.28996149182,-46737.81058046944,-31013.447763138745,-48357.64150114555
13716.840889077293,7580.147097128284,-33369.94747757286,-42656.69496735275,-37035.812382198856,-46699.56674570641,-31166.31134346859,-48376.72989091038
13644.912975420115,7706.970895167697,-33193.92748998731,-42472.024854663,-37015.71816393354,-46523.278537187405,-31111.460162575266,-48230.57183391712
13692.633949832196,7707.149709123339,-33194.32982138751,-42491.76144501704,-36826.91297851956,-46530.11817099073,-30941.721015181665,-48189.26581016371
13761.38791577672,7570.468791779136,-33376.09420729807,-42690.982543347185,-36828.23173144242,-46713.73775169108,-30974.980410931163,-48332.94282352243
13729.871956094737,7562.399812030771,-33382.68797191238,-42676.56566817351,-37002.17300679362,-46714.05067611345,-31136.091784965014,-48380.19441130095
13654.770094724905,7693.671607216788,-33214.848722797484,-42487.58166880389,-37022.960129137056,-46530.22992971301,-31118.992700456703,-48238.21613052084
13667.398830342154,7707.529688779079,-33195.64857431038,-42480.071482666914,-36860.44059520252,-46510.15806319214,-30966.151471871315,-48173.73134776728
13750.43556099362,7584.371576830337,-33356.46937566631,-42663.53460115607,-36810.216225411445,-46683.20526876513,-30956.830794433452,-48299.77283475076
13744.154720801678,7549.0781723354075,-33404.61503322304,-42700.862014396436,-36973.115739001725,-46728.758123965046,-31113.091839920504,-48384.396539258545
13661.073286661302,7667.743583648633,-33239.323882976045,-42520.52814013101,-37042.2943880909,-46563.064642317855,-31139.31043616658,-48267.40750877947
13657.385248826176,7719.152595895839,-33168.13357688589,-42454.79165968796,-36880.84773789022,-46490.220307138006,-30982.13296915686,-48166.51173430822
13738.879709110226,7604.421091606748,-33321.75711652722,-42620.84276924643,-36791.820739724724,-46646.8613322808,-30934.21082904468,-48267.49691575729
13744.467645224053,7531.576756426902,-33420.99886190878,-42717.335250059994,-36953.15563120313,-46747.04185092948,-31096.685659490307,-48386.855231148635
13655.373591825199,7626.392856406314,-33286.91074692139,-42562.59412319591,-37068.71415003707,-46606.538785283425,-31170.1558435149,-48300.62220104006
13639.481501517475,7711.530651036579,-33174.168547888825,-42445.09100259435,-36928.725174513485,-46495.56237406282,-31024.578931877488,-48181.10742343753
13734.878746852726,7635.914699544275,-33283.557985253094,-42577.56979198096,-36787.32803908921,-46616.820587732866,-30925.963035340672,-48247.447400980884
13762.170226832657,7540.271585020017,-33414.5392077612,-42704.415941764826,-36910.195578360035,-46738.168208380725,-31054.530269447598,-48369.55498094022
13680.139324681679,7613.741769044611,-33310.44713383283,-42581.548402494,-37049.22342887204,-46622.98966920253,-31156.96831428627,-48304.26553538627
13630.563155479807,7704.579258510978,-33177.78953049058,-42450.701290452635,-36952.88741026967,-46492.29901937235,-31045.701330387754,-48174.468955334305
13701.32877842531,7638.46279841218,-33265.184851310834,-42560.738928406114,-36803.98008870841,-46592.12191010975,-30929.852238875897,-48219.0830372671
13757.252843052489,7531.196776771161,-33407.99014663579,-42704.59475572047,-36873.60577268669,-46739.978699681604,-31026.47883015619,-48362.11185003661
13693.170391699123,7584.058652407963,-33336.710433567816,-42612.30440286451,-37035.5888647543,-46661.412317921204,-31154.241401462725,-48337.52493113577
13613.799347138329,7680.305264032515,-33197.05673421106,-42462.90534292524,-37000.720143404025,-46515.790702794875,-31088.34845880848,-48208.667124350926
13684.766135783928,7657.685298643744,-33236.41815619685,-42519.81288430845,-36812.85373125717,-46561.50002020598,-30936.423651745758,-48205.49317663827
13750.212043549067,7534.415427972726,-33409.01832688074,-42699.811482407036,-36851.23167648693,-46731.596795510864,-31001.400172877333,-48345.97389053988
13701.798165058872,7552.050954347963,-33375.60246892005,-42657.61138887541,-37032.101992619275,-46699.63380093978,-31158.3541224425,-48360.48017269137
13625.93634437756,7674.516162218591,-33211.920644273836,-42476.226982620596,-37026.938739650104,-46527.54772037837,-31121.049060946592,-48225.60974664805
13670.259853632433,7678.1594965648055,-33213.90994953036,-42487.51461357053,-36845.33081595073,-46531.794551824874,-30955.959076399697,-48183.29789439415
13759.085686097824,7559.717602696133,-33383.49263471278,-42667.82613609149,-36828.16467620905,-46702.27130678551,-30969.92891668426,-48312.75919827929
13728.597906660785,7550.463980491636,-33395.07083834062,-42676.096281539954,-37006.01750683993,-46718.34221104887,-31135.68945356482,-48371.85721061912
13644.60005099774,7666.603644681412,-33224.974063035734,-42495.96357297464,-37041.22150435704,-46542.858665330255,-31127.57577032754,-48229.67776413891
13659.441609316065,7690.162383337305,-33194.88861499889,-42478.30569485494,-36875.9527058545,-46514.740170805475,-30971.717056240686,-48165.26003661872
13752.96130811707,7578.873047694332,-33343.30419818213,-42636.9136735098,-36799.241518883886,-46673.929294816175,-30943.442099504722,-48280.527982774736
13741.450159722586,7532.448474460659,-33404.436219267394,-42690.20023229125,-36968.24305871047,-46731.261519344036,-31110.186113141313,-48370.493754207346
13648.89158593316,7643.067257769973,-33250.16447903687,-42519.432904652705,-37049.67046376115,-46570.08309007682,-31150.553363627598,-48259.91967438694
13639.950888151037,7693.559848494512,-33181.14229215888,-42450.298959052445,-36898.527967754366,-46495.33885661827,-30990.626632049876,-48157.973367926286
13731.86126135126,7592.485260067614,-33325.869837506994,-42611.209167386194,-36796.648716527074,-46644.26852992398,-30927.527657452545,-48253.638834195
13744.892328368704,7520.222070243606,-33422.65289099847,-42699.63266845139,-36940.14691593014,-46739.48696130359,-31080.14536859338,-48368.48209720637
13667.599996042252,7626.906946528787,-33282.798025941614,-42539.52712291803,-37052.665597518164,-46591.36195079827,-31151.49213689472,-48277.26462808426
13650.411504556121,7722.7735784975985,-33154.32019881251,-42413.038601045446,-36913.52598828387,-46464.15817310312,-31002.47305661119,-48143.221216585785
13736.152796286678,7638.976888534652,-33268.53761297913,-42544.22098925364,-36777.001533150855,-46585.10346235079,-30905.22061648615,-48207.99657201726
13762.505502999486,7534.057800061441,-33404.61503322304,-42686.28867701157,-36895.219909574975,-46721.404400039246,-31036.201838994246,-48342.21879747138
13676.965376969025,7597.1567746587725,-33309.62011928798,-42574.35114077939,-37048.888152705214,-46616.954698199595,-31152.386206672934,-48289.960418934876
13630.719617690995,7700.600647997934,-33167.61948676342,-42428.32719425287,-36957.69303532756,-46481.3690163337,-31045.075481543005,-48158.71097549331
13707.967246528537,7648.006993294596,-33242.0954992885,-42522.89742504328,-36788.28916410079,-46566.93149410862,-30915.904750335783,-48190.49515610876
13769.032212380436,7538.595204185868,-33389.52760571571,-42682.175956031795,-36857.37840621214,-46719.28098431599,-31012.75485906063,-48332.316974677684
13706.670845350129,7584.483335552613,-33326.60744507402,-42596.52407127906,-37024.904730904665,-46652.046936994426,-31151.983875272737,-48319.28590766024
13647.326963821288,7704.0428166440515,-33161.718626227215,-42427.097848307836,-36969.49475639996,-46486.28640011387,-31067.918964376327,-48170.4679930768
13693.438612632586,7663.206179524205,-33217.10624898747,-42500.0315904655,-36805.56706256474,-46546.18907525409,-30930.567494698465,-48173.418423344905
13779.023442151958,7566.490181266092,-33367.98052406079,-42654.32568244048,-36816.94410049249,-46698.538565461466,-30977.662620265797,-48303.28205863024
13716.505612910463,7567.943044655686,-33364.82892809259,-42638.32183341048,-37011.18075980911,-46687.76502463401,-31141.54561061211,-48337.52493113577
13623.678818187575,7675.23141804116,-33207.517350616145,-42466.45927029363,-37025.70939370506,-46530.25228145746,-31122.814848758564,-48212.64573486397
13683.626196816707,7694.118642105895,-33183.958611960246,-42457.138592855765,-36821.190931939,-46511.946202748564,-30947.644227462322,-48153.48066729077
13760.091514598313,7564.299710309471,-33362.504346669244,-42643.663900335305,-36804.42712359752,-46690.55899269092,-30963.402207303312,-48292.93320094743
13720.14894725668,7538.639907674779,-33396.970736619325,-42663.33343545597,-36993.299364244864,-46719.43744652718,-31137.030558232138,-48365.91164659401
13640.93436490707,7663.116772546384,-33217.642690854394,-42475.377616331294,-37031.38673679671,-46546.23377874301,-31139.01986348866,-48234.12576128552
13652.400809812643,7690.989397882152,-33185.61264104994,-42447.1697148287,-36862.00521731439,-46507.52055734641,-30980.79186448954,-48158.91214119341
13753.721267428551,7589.177201888228,-33333.491782366254,-42607.74464699563,-36783.014152409334,-46655.511457385,-30938.971750613662,-48260.523171487235
13746.568709202851,7542.573814698913,-33394.26617554023,-42662.70758661123,-36949.0205584789,-46714.45300751365,-31098.63026125792,-48345.77272483978
13660.46978956101,7657.215912010183,-33232.90893231737,-42493.23666015109,-37032.01258564146,-46558.102555048776,-31145.859497291985,-48240.20543577736
13648.735123721974,7711.709464992222,-33163.886745439384,-42423.63332791726,-36885.943935626026,-46484.05122566834,-30997.980355975673,-48142.88594041896
13722.875860080227,7591.635893778312,-33322.47237234979,-42600.12270213637,-36795.86640547114,-46643.307404912404,-30948.31477979598,-48246.687441669405
13727.681485138117,7501.088976989863,-33433.9405219484,-42711.43438952379,-36948.573523589796,-46755.647272544775,-31101.4912845482,-48372.52776295278
13658.569891282308,7611.283077154527,-33279.98170614025,-42543.058698541965,-37057.29240862041,-46604.236555604526,-31171.96633481578,-48279.119822874054
13635.3687805377,7704.936886422263,-33161.13748087138,-42426.06966806289,-36921.527912798876,-46482.95599019003,-31026.501181900643,-48146.68573697636
13710.42593841862,7621.184899948228,-33285.86021493199,-42561.96827435116,-36786.07634139971,-46606.4493783056,-30925.851276618396,-48217.69722911087
13738.835005621315,7512.108387006329,-33429.42546956843,-42703.34305803097,-36906.39578180263,-46745.521932306525,-31060.408778239344,-48356.90389357852
13675.55721706834,7598.654341537278,-33314.40339260142,-42568.40557675428,-37043.3449200803,-46623.54846281391,-31163.78559634514,-48291.68150325793
13637.55925149432,7711.307133592026,-33163.327951827996,-42410.26698473299,-36947.031253222376,-46477.077481398286,-31052.876240357906,-48156.3193388366
13718.494918166985,7661.149819034317,-33233.46772592876,-42503.47375911161,-36775.03457963879,-46551.57584566782,-30910.36151771087,-48176.05592919063
13756.403476763187,7529.408637214737,-33405.9337861459,-42679.98548507518,-36855.34439746671,-46721.94084190617,-31011.90549277133,-48326.9078525195
13685.32492939531,7563.629157975813,-33351.61904711951,-42601.32969633695,-37029.77741119592,-46656.450230652124,-31156.811852075083,-48314.65909655799
13627.165690322601,7685.04383385704,-33185.56793756103,-42430.02592683148,-36981.6764571281,-46490.33206586028,-31081.687638960797,-48165.640016274454
13694.913827766637,7672.079822072962,-33207.89733027188,-42474.03651166398,-36800.38145785111,-46528.77706632341,-30925.448945218202,-48153.01128065721
13771.401497292698,7551.760381670044,-33370.260401995234,-42651.844638805946,-36814.93244349152,-46699.43263523968,-30977.595565032432,-48298.72230276136
13729.760197372461,7567.652471977767,-33349.60739011853,-42617.26649013359,-36988.87371884271,-46676.94678031764,-31130.12386919545,-48323.33157340665
13650.143283622658,7689.514182748102,-33182.215175892736,-42438.184313557664,-36989.968954321026,-46502.804339266346,-31094.942223422793,-48181.37564437099
13681.681595049096,7687.055490858018,-33184.56210906054,-42453.718775954105,-36819.179274938026,-46511.63327832619,-30939.776413414053,-48148.38446955496
13755.554110473886,7557.8847596507985,-33363.756044358735,-42641.67459507878,-36803.04131544129,-46692.43653922517,-30961.725826469163,-48287.25585785578
13712.079967508313,7521.093788277363,-33411.52172225973,-42678.465566452214,-37002.66474517164,-46731.99912691106,-31146.015959503173,-48364.972873326886
13637.827472427784,7658.333499232948,-33233.177153250836,-42484.2289071356,-37045.55774278137,-46550.480610189516,-31145.3007036806,-48233.29874674067
13656.111199392224,7697.471403774191,-33181.164643903336,-42438.85486589133,-36865.42503421605,-46503.564298577825,-30978.444931321734,-48156.38639406996
13743.551223701386,7582.002291918075,-33341.09137548105,-42611.52209180857,-36790.54669029077,-46670.174201747686,-30946.12430883936,-48268.72626170234
13737.62801142073,7530.7720936265105,-33403.676259955915,-42676.61037166243,-36955.88254402668,-46734.01078391204,-31107.772124740142,-48355.89806507803
13657.18408312608,7649.795132851021,-33246.14116503491,-42496.45531135265,-37039.83569620081,-46566.88679061971,-31152.20739271729,-48242.284148011706
13659.12868489369,7716.917421450308,-33157.78471920308,-42414.357353968306,-36882.27824953535,-46479.13384188817,-30991.61010880591,-48130.95010887982
13739.751427143983,7605.248106151594,-33300.85823546151,-42584.99057114012,-36779.16965236302,-46634.634928063744,-30928.555837697488,-48229.23072924981
13755.263537795967,7527.419331958215,-33408.54894024717,-42689.55203170205,-36916.766991229895,-46742.8844264608,-31077.351400536467,-48353.081745276664
13672.942062967071,7623.956516260686,-33283.89326141993,-42537.113134516854,-37043.300216591386,-46608.88571845123,-31162.489195166734,-48276.45996528387
13646.835225443272,7719.57727904049,-33157.06946338051,-42410.44579868863,-36914.39770631763,-46479.53617328837,-31024.824801066497,-48139.04144037264
13716.393854188187,7629.410341907781,-33282.663915474885,-42549.80892536747,-36784.80229196576,-46602.31430558137,-30933.674387177754,-48201.96160101433
13748.915642370659,7519.305648720939,-33415.768553706235,-42695.83287189399,-36891.46481650649,-46747.28772011849,-31061.526365462112,-48349.21489348589
13675.333699623789,7593.424033334736,-33323.41114561691,-42578.41915827026,-37048.105841649274,-46642.8603700233,-31181.063494809092,-48304.71257027538
13641.582565496275,7722.348895352948,-33161.67392273831,-42402.44387417363,-36944.28198865437,-46473.94823717454,-31054.977304336706,-48142.304795063115
13697.305464423354,7653.796095108521,-33256.646484928904,-42511.60979409335,-36794.346486848175,-46572.36296801126,-30936.758927912586,-48183.85668800553
13765.031250122936,7549.391096757781,-33394.48969298478,-42663.31108371152,-36851.23167648693,-46721.67262097271,-31020.108582986428,-48321.2528611723
13703.161621470646,7589.512478055058,-33334.43055563338,-42592.50075727711,-37017.573358723326,-46658.73010858657,-31156.11894799697,-48311.7533697788
13626.137510077657,7694.565676995001,-33185.0314956941,-42433.04341233295,-36984.47042518502,-46503.072560199806,-31093.399953055377,-48172.74787101125
13676.004251957447,7668.570598193479,-33221.978929278725,-42481.25612512304,-36810.28328064481,-46542.05400252986,-30944.4032245163,-48159.82856271608
13749.295622026399,7545.747762411566,-33387.58300394809,-42659.13130749838,-36828.70111807598,-46713.93891739118,-30995.27579489658,-48305.27136388676
13710.247124462978,7559.337623040394,-33368.13698627198,-42625.87191174888,-37001.32364050432,-46691.25189676904,-31147.290008937125,-48330.68529733244
13629.065588601303,7682.719252433688,-33207.293833171585,-42443.995767116045,-37008.632660941206,-46517.95882200704,-31119.3950318569,-48194.741987555266
13671.288033877378,7696.33146480697,-33191.9828882197,-42439.950101369635,-36820.498027860885,-46502.6255253107,-30949.924105396763,-48137.52152174968
13737.560956187363,7552.475637492614,-33380.966887589326,-42646.83784804796,-36816.720583047936,-46699.030303839485,-30978.75785574411,-48291.25682011328
13719.076063522823,7539.578680941901,-33398.69182094238,-42651.352900427926,-36986.79500660837,-46719.61626048282,-31143.311398424077,-48355.741602866845
13648.84688244425,7678.6288831983675,-33209.0372692391,-42453.227037576085,-37017.75217267897,-46530.11817099073,-31136.941151254316,-48209.18121447339
13671.220978644013,7729.322639623004,-33152.10737611144,-42404.18731024114,-36839.85463855918,-46474.35056857474,-30967.783149216553,-48114.834501127545
13752.111941827769,7607.9526672306865,-33323.03116596117,-42587.6504287303,-36776.867422684125,-46650.4599631381,-30943.330340782446,-48242.887645112
13745.227604535534,7547.915881623731,-33404.05623961166,-42663.020511033596,-36947.29947415584,-46726.76881870852,-31111.34840385299,-48346.59973938463
13651.573795267797,7644.98950779313,-33265.72129317776,-42504.63604982329,-37049.08931840531,-46581.08014834883,-31175.654372650908,-48250.800162649175
13638.565079994809,7707.082653889973,-33173.27447811061,-42418.58183367036,-36898.0585811208,-46495.383560107184,-31025.696519100253,-48143.13180960796
13749.742656915505,7631.645516353312,-33279.78054044015,-42544.77978286502,-36763.858707411135,-46611.34441034131,-30933.272055777557,-48208.443606906374
13764.561863489374,7543.579643199402,-33394.109713329046,-42659.801859832034,-36900.07023812178,-46729.987469910084,-31075.987944124696,-48338.64251835853
13671.08686817728,7626.102283728395,-33280.60755498499,-42524.35028843288,-37037.51111477746,-46606.538785283425,-31171.496948182223,-48267.89924715749
13633.915917148104,7714.615191771411,-33162.23271634969,-42407.227147487065,-36925.841799478745,-46483.89476345715,-31043.935542575782,-48136.292175804636
13723.14408101369,7645.570653148968,-33261.00507509769,-42520.37167791983,-36771.99474239287,-46587.47274726305,-30931.036881332027,-48187.99176072976
13756.828159907838,7534.7283523951,-33408.638347224995,-42674.08462453898,-36878.791377400325,-46737.140028135786,-31053.099757802458,-48328.8077507982
13678.820571758817,7596.441518836203,-33316.45975309131,-42566.93036162023,-37036.99702465499,-46640.69225081113,-31176.771959873673,-48286.78647122222
13646.589356254264,7728.853252989442,-33148.441690020765,-42392.05031300191,-36932.79319200435,-46467.80150744933,-31052.675074657807,-48126.032725099656
13716.885592566205,7680.640540199344,-33215.698089086785,-42478.529212299494,-36762.808175421735,-46543.99860429748,-30915.904750335783,-48142.61771948549
13767.691107713117,7551.6039194588575,-33385.772512647214,-42658.39369993135,-36833.12676347813,-46718.744542449065,-31012.777210805085,-48300.75631150679
13710.135365740702,7588.886629210309,-33331.41307013191,-42586.823414185455,-37003.380000994206,-46660.27237895398,-31157.236535219734,-48297.33649460513
13647.483426032475,7710.927153936286,-33163.17148961681,-42409.2611562325,-36965.337331931274,-46487.426339081096,-31091.85768268796,-48150.57494051158
13702.04403424788,7692.263447316104,-33191.17822541931,-42454.81401143241,-36785.964582677436,-46523.703220332056,-30938.435308746735,-48135.75573393771
13769.568654247363,7563.964434142642,-33371.802672362646,-42646.83784804796,-36805.05297244227,-46707.59102196587,-30996.594547819444,-48289.401625323495
13724.261668236455,7561.885721908298,-33366.81823334911,-42624.2625861481,-36991.3324107328,-46694.73876890406,-31157.39299743092,-48322.43750362844
13638.095693361247,7676.527819219568,-33197.928452244814,-42444.711022938616,-37006.84452138478,-46520.97630750851,-31132.53785759662,-48182.515583338216
13678.284129891888,7701.42766254278,-33176.64959152336,-42433.42339198868,-36815.91592024755,-46502.04437995487,-30963.3575038144,-48123.46227448729
13759.353907031287,7570.7370127126,-33351.395529674955,-42620.61925180188,-36787.149225133566,-46678.198478007136,-30966.66556199379,-48259.405584264474
13736.555127686874,7545.390134500281,-33382.73267540129,-42648.60363585992,-36966.320808687306,-46713.40247552425,-31134.102479708494,-48331.28879443274
13657.206434870533,7674.560865707501,-33214.40168790838,-42455.86454342181,-37017.81922791234,-46534.744982092976,-31145.92655252535,-48198.07239747911
13667.555292553341,7715.57631678299,-33159.25993433713,-42410.222281244074,-36846.33664445122,-46485.63819952467,-30986.35744885891,-48118.03080058465
13750.413209249165,7593.915771712754,-33326.80861077412,-42597.68636199074,-36781.181309364,-46661.65818711021,-30963.402207303312,-48249.86138938205
13746.725171414038,7534.169558783718,-33399.965870376334,-42665.72507211269,-36936.97296821749,-46730.65802224374,-31115.34936611049,-48342.174093982474
13656.51353079242,7639.669792612767,-33253.40548198289,-42501.4844538551,-37033.33133856432,-46575.983950613016,-31167.183061502346,-48234.14811302997
13652.378458068188,7722.661819775322,-33149.492222010165,-42399.94047879463,-36873.762234897884,-46474.842306952756,-31010.162056703815,-48114.29805926062
13742.1430638007,7627.711609329178,-33278.08180786155,-42545.7409078766,-36754.001588106345,-46609.28804985143,-30933.629683688843,-48193.91497301042
13761.76789543246,7538.1034658078515,-33391.293393527674,-42660.74063309916,-36886.212156559486,-46719.526853505,-31071.763464422642,-48314.927317491456
13670.304557121344,7613.182975433228,-33278.193566583825,-42527.23366346761,-37025.86585591625,-46604.25890734898,-31171.22872724876,-48258.80208716418
13630.630210713174,7705.316866078004,-33159.37169305941,-42406.310725964395,-36921.12558139868,-46486.6216762807,-31056.318409004023,-48141.678946218366
13703.072214492824,7624.425902894248,-33266.32479027806,-42529.647651868785,-36776.37568430611,-46597.62043924576,-30944.31381753848,-48187.63413281848
13752.111941827769,7528.469863947615,-33401.597547721576,-42665.09922326794,-36869.4036447291,-46732.60262401136,-31052.116281046427,-48316.29077390323
13684.117935194725,7590.853582722376,-33316.280939135664,-42560.94009410621,-37023.69773670408,-46638.18885543214,-31172.16750051588,-48281.86908744206
13644.532995764375,7713.251735359638,-33143.43489926278,-42380.8520890298,-36930.937997214554,-46464.85107718123,-31055.223173525716,-48121.56237620859
13702.491069136986,7653.997260808619,-33224.03528976862,-42475.71289249812,-36774.498137771865,-46547.396069454684,-30926.812401629973,-48146.573978254084
13754.525930228941,7526.704076135645,-33389.75112316026,-42654.43744116276,-36838.62529261414,-46720.26446107202,-31017.336966673967,-48297.82823298314
13707.564915128341,7574.8497336923765,-33336.08458472307,-42583.71652170617,-37003.581166694305,-46663.66984411119,-31156.074244508058,-48293.55904979218
13644.309478319821,7708.893145190853,-33164.33378032849,-42405.550766652916,-36965.96318077602,-46489.88503097118,-31092.72940072172,-48145.27757707567
13695.159696955645,7695.996188640141,-33196.1850161773,-42443.928711882676,-36792.58069903621,-46513.46612137152,-30940.514020981078,-48118.76840815168
13769.702764714095,7567.607768488857,-33371.310933984634,-42625.93896698224,-36808.04810619928,-46693.66588517021,-30990.045486694038,-48269.039186124704
13723.099377524779,7563.919730653732,-33365.4771286818,-42613.891376720836,-36992.114721788734,-46694.51525145951,-31156.565982886077,-48316.13431169204
13642.856614930228,7687.010787369108,-33190.91000448585,-42424.147418039734,-37006.19632079558,-46513.06378997133,-31131.286159907122,-48171.36206285501
13678.84292350327,7706.52386027859,-33163.48441403919,-42408.970583554576,-36820.3415656497,-46490.64499028266,-30959.08832062344,-48109.42537896936
13760.024459364946,7579.9012279392755,-33333.69294806635,-42593.50658577759,-36778.36498956263,-46662.99929177753,-30955.199117088214,-48241.07715381112
13733.202366018579,7539.846901875366,-33386.15249230296,-42630.90105425132,-36967.1254714877,-46707.45691149913,-31127.754584283186,-48318.23537567084
13646.321135320799,7661.149819034317,-33225.35404269148,-42449.76251718551,-37024.055364615364,-46540.57878739581,-31148.295837437614,-48196.7759963007
13666.638871030675,7721.588936041468,-33157.18122210279,-42389.14458622272,-36847.945970052,-46468.98614990547,-30976.097998153928,-48096.304904974095
13754.950613373592,7611.014856221063,-33305.19447388584,-42560.38130049483,-36764.283390555785,-46629.15875067219,-30933.16029705528,-48207.169557472414
13758.124561086246,7552.006250859053,-33383.80555913515,-42632.73389729666,-36913.25776735041,-46711.23435631208,-31091.142426865394,-48310.23345115584
13666.884740219682,7654.690164886733,-33241.76022312167,-42471.041377906964,-37018.51213199045,-46558.437831215604,-31152.810889817585,-48208.75653132874
13647.662239988118,7722.170081397305,-33147.41350977582,-42380.27094367397,-36877.42792098855,-46463.82289693629,-31005.110562456917,-48096.796643352114
13737.560956187363,7632.293716942516,-33277.74653169471,-42526.786628578506,-36757.711977685925,-46599.609744502275,-30924.532523695532,-48181.28623739317
13770.641537981217,7551.7827334144995,-33383.13500680149,-42627.41418211629,-36882.88174663565,-46710.60850746733,-31060.14055730588,-48302.45504408539
13688.56593234133,7633.74658033211,-33262.390883253924,-42493.16960491772,-37017.12632383422,-46587.71861645205,-31157.907087553394,-48236.83032236461
13654.814798213816,7733.837692002976,-33132.32608226849,-42361.27196088695,-36901.76897070038,-46454.74808868743,-31026.210609222726,-48100.73055037625
13742.545395200897,7671.297511017026,-33218.849685054985,-42472.56129652993,-36744.859724624126,-46553.25222650197,-30908.97570955464,-48141.65659447391
13777.525875273452,7554.867274149332,-33371.82502410711,-42627.660051305305,-36848.035377029824,-46708.127463832796,-31031.463269169722,-48291.1003579021
13692.768060298928,7598.386120603815,-33298.91363369389,-42541.15880026326,-37012.29834703187,-46629.20345416111,-31156.4542241638,-48266.960473890365
13634.184138081568,7708.9154969353085,-33145.53596324158,-42376.38174013874,-36938.850514751735,-46470.05903363932,-31059.80528113905,-48117.87433837347
13705.32974068281,7670.045813327529,-33202.71172555825,-42456.62450273329,-36765.98212313439,-46535.21436872654,-30922.654977161288,-48126.07742858856
13767.981680391036,7550.709849680645,-33367.71230312733,-42629.15761818381,-36817.32408014823,-46703.29948703045,-31000.37199263239,-48272.5931134931
13703.228676704011,7567.496009766581,-33336.710433567816,-42575.75930068008,-37002.79885563837,-46661.94875978813,-31156.141299741426,-48281.86908744206
13643.013077141415,7698.946618908241,-33158.81289944803,-42386.752949566006,-36968.913611044125,-46482.933638445575,-31088.080237875016,-48126.97149836677
13694.243275432978,7685.490868746147,-33173.58740253298,-42421.15228428272,-36782.120082631125,-46509.26399341393,-30928.868762119862,-48106.18437602334
13772.273215326455,7564.54557949848,-33347.90865753993,-42603.90014694931,-36788.557385034255,-46680.14307977475,-30971.046503907026,-48247.40269749197
13722.42882519112,7551.648622947768,-33358.391625689466,-42600.97206842567,-36973.16044249063,-46683.40643446522,-31138.48342162173,-48292.57557303615
13633.55828923682,7668.369432493381,-33192.74284753118,-42414.82674060187,-36999.35668699225,-46513.75669404944,-31123.597159814497,-48160.566170283106
13668.292900120367,7691.928171149275,-33157.15887035833,-42397.34767643782,-36814.37364988013,-46482.88893495667,-30951.60048623091,-48090.627561882444
13746.188729547112,7565.7525736990665,-33328.14971544143,-42585.12468160685,-36770.27365806981,-46656.91961728568,-30948.15831758479,-48217.20549073285
13715.678598365617,7520.5573464104355,-33384.14083530198,-42627.74945828313,-36957.62598009419,-46709.49092024457,-31121.4960958357,-48305.8525092426
13637.492196260953,7649.057525283996,-33209.59606285048,-42437.80433390193,-37011.71720167604,-46528.82176981232,-31134.683625064332,-48174.55836231213
13654.121894135702,7702.9922846546515,-33133.46602123571,-42378.16987969517,-36838.91586529206,-46461.72183295749,-30967.492576538632,-48082.22330596725
13758.01280236397,7606.544507330002,-33271.82331941406,-42541.874056085835,-36741.19403853345,-46610.56209928538,-30909.802724099485,-48183.700225794346
13765.120657100757,7547.82647464591,-33354.77064308771,-42616.595937799924,-36893.09649385172,-46690.491937457555,-31058.665342171833,-48287.63583751152
13665.029545429892,7637.881653056343,-33225.845781069496,-42469.36499707282,-37009.0349923414,-46551.866418345744,-31129.63213081743,-48202.229821947796
13647.438722543566,7715.419854571803,-33122.69248040825,-42373.96775173757,-36861.35701672519,-46449.65189095162,-30978.37787608837,-48085.59841938
13737.292735253899,7621.475472626147,-33247.638731913416,-42520.4387331532,-36733.259169251825,-46582.17538382714,-30890.02143025654,-48166.8693622195
13759.15274133119,7524.625363901301,-33378.999934077256,-42641.67459507878,-36868.68838890653,-46703.45594924164,-31031.016234280618,-48299.01287543927
13675.937196724082,7604.756367773577,-33265.81070015558,-42509.66519232574,-37009.43732374159,-46586.51162225147,-31135.555343098087,-48242.150037544976
13649.360972566721,7718.727912751188,-33123.81006763101,-42372.49253660352,-36889.63197346115,-46441.22528329197,-31001.020193221593,-48099.747073620216
13728.866127594249,7651.873845085364,-33218.40265016587,-42479.06565416642,-36730.88988433956,-46538.34361295028,-30880.29842141848,-48148.09389687704
13781.258616597488,7550.151056069262,-33366.92999207139,-42622.22857740266,-36823.04612672879,-46678.8690303408,-30990.93955647225,-48289.960418934876
13702.267551692434,7601.023626449541,-33300.23238661676,-42540.57765490743,-36995.31102124584,-46600.21324160257,-31125.027671459637,-48264.05474711117
13648.89158593316,7715.978648183185,-33141.46794575071,-42378.88513551773,-36920.186808131555,-46435.547940200326,-31031.060937769525,-48116.84615812852
13713.532830897908,7672.6609674288,-33198.978984234214,-42463.33002606989,-36748.79363164826,-46500.09977818725,-30889.59674711189,-48133.74407693673
13777.861151440282,7551.581567714402,-33369.38868396148,-42642.814534046,-36795.79935023777,-46670.42007093669,-30966.41969280478,-48289.35692183458
13732.241241007,7592.261742623061,-33316.862084491506,-42573.85940240138,-36962.09632898526,-46611.45616906359,-31106.29690960609,-48289.62514276805
13650.009173155926,7703.148746865839,-33156.689483724775,-42406.08720851984,-36946.40540437763,-46441.24763503643,-31053.971475836217,-48144.897597419935
13685.61550207323,7678.494772731635,-33187.89251898438,-42454.79165968796,-36776.93447791749,-46474.50703078593,-30909.06511653246,-48133.90053914792
13766.260596067978,7560.745782941078,-33352.781337831184,-42636.55604559852,-36765.87036441211,-46645.408468891204,-30943.64326520482,-48278.02458739574
13729.246107249988,7554.666108449234,-33361.4761664243,-42633.58326358596,-36951.3227881578,-46649.29767242643,-31108.375621840434,-48325.2091199409
13649.159806866624,7676.728984919666,-33182.99748694867,-42446.74503168405,-36976.58025939229,-46474.66349299711,-31097.356211823968,-48190.15987994193
13683.447382861064,7703.461671288213,-33144.172506829804,-42423.655679661715,-36789.63026876811,-46441.42644899207,-30927.818230130462,-48120.82476864156
13766.72998270154,7582.337568084904,-33315.520979824185,-42608.571661540474,-36747.20665779193,-46615.837110976834,-30922.83379111693,-48247.29093876969
13748.021572592446,7539.6904396641785,-33370.43921595087,-42657.29846445304,-36929.82040999179,-46665.681501112165,-31092.68469723281,-48329.79122755423
13662.637908773175,7653.572577663967,-33207.785571549604,-42486.3299711144,-36989.49956768746,-46501.5749933213,-31116.221084144247,-48214.12094999802
13669.745763509962,7706.52386027859,-33139.16571607181,-42416.793694113934,-36824.65545232957,-46439.325385013275,-30960.585887501944,-48128.49141698974
13757.006973863481,7595.145117657795,-33286.01667714318,-42587.42691128575,-36738.020090820806,-46599.632096246736,-30915.480067191133,-48236.3832874755
13759.376258775743,7524.223032501106,-33380.609259678036,-42678.77849087459,-36898.460912521,-46688.83790836787,-31072.188147567293,-48343.33638469415
13662.79437098436,7615.7087225566775,-33254.52306920565,-42534.90031181578,-37020.12145759123,-46554.72744163602,-31151.849764806007,-48258.08683134161
13648.601013255242,7700.824165442487,-33146.13946034187,-42424.03565931746,-36880.423054745566,-46445.740335671944,-31007.70336481373,-48138.10266710552
13747.395723747699,7624.8058825499875,-33250.43269997033,-42547.6408061553,-36737.75186988734,-46563.22110452904,-30905.26531997506,-48199.413502146424
13775.693032228117,7530.325058737405,-33372.31676248512,-42671.0224355486,-36855.925542822544,-46687.27328625599,-31038.90640007334,-48327.53370136425
13701.865220292239,7614.635838822823,-33254.23249652774,-42528.91004430176,-36984.3810182072,-46557.744927137486,-31130.88382850693,-48255.22580805133
13648.153978366136,7697.873735174387,-33133.26485553561,-42404.41082768569,-36892.60475547371,-46434.564463444294,-31019.48273414168,-48131.08421934655
13715.388025687698,7623.12950171584,-33234.987644551715,-42521.668079098235,-36749.77710840429,-46538.812999583846,-30912.999023556597,-48184.23666766127
13772.764953704473,7524.647715645757,-33375.89304159797,-42656.650263863834,-36827.00238549738,-46674.71160587211,-31011.369050904403,-48309.58525056663
13697.216057445534,7574.313291825449,-33304.2109971298,-42567.399748253796,-36996.741532890985,-46598.73802646852,-31143.423157146357,-48281.913790930965
13643.571870752798,7697.583162496468,-33130.11325956741,-42391.58092636835,-36923.763087244406,-46427.635422663145,-31043.51085943113,-48126.502111733214
13706.156755227657,7659.518141689079,-33186.752580017164,-42467.979188916586,-36747.54193395876,-46490.93556296058,-30902.471351918146,-48136.113361849
13768.562825746874,7532.15790178274,-33362.146718757955,-42647.35193817043,-36796.17932989351,-46668.05078602443,-30979.316649355493,-48293.313180603174
13725.043979292392,7563.584454486901,-33321.9135787384,-42595.33942882293,-36965.40438716464,-46623.861387236284,-31120.602026057488,-48298.632895783536
13651.462036545521,7685.826144912976,-33144.77600393009,-42409.84230158834,-36941.510372341916,-46441.135876314154,-31059.917039861328,-48138.862626417
13703.832173804305,7692.218743827194,-33148.933428398785,-42429.467133220096,-36749.665349682014,-46450.233036307465,-30892.25660470207,-48102.76455912168
13771.088572870323,7561.952777141664,-33334.966997500305,-42624.351993125914,-36756.14735557406,-46642.88272176775,-30934.724919167154,-48264.77000293374
13732.800034618384,7548.54173046848,-33346.209924961324,-42619.56871981248,-36940.526895585885,-46647.509532870004,-31101.44658105929,-48316.64840181451
13639.839129428761,7661.149819034317,-33191.46879809723,-42449.89662765225,-36980.78238734989,-46479.73733898847,-31100.77602872563,-48183.3202461386
13647.550481265842,7669.0623365714955,-33168.06652165252,-42448.957854385124,-36812.9878417239,-46467.421527793595,-30954.282695565547,-48130.74894317972
13741.76308414496,7556.029564861008,-33323.07586945008,-42614.31605986549,-36755.25328579584,-46629.94106172813,-30937.518887224065,-48248.90026437047
13723.76992985844,7512.175442239695,-33386.10778881404,-42670.88832508187,-36934.2684071384,-46686.446271711146,-31107.123924150936,-48339.581291625655
13657.876987204194,7655.695993387222,-33201.52708310212,-42466.05693889343,-36988.47138744252,-46496.232926396486,-31123.843029003507,-48201.55926961414
13665.2754146189,7713.0282179150845,-33123.29597750855,-42398.711132849596,-36821.257987172365,-46422.20394876051,-30956.763739200087,-48097.08721603003
13739.438502721609,7588.953684443675,-33292.16340686839,-42587.382207796836,-36739.204733276936,-46596.92753516764,-30919.481029448634,-48221.27350822372
13755.889386640714,7525.452378446148,-33377.70353289885,-42670.66480763732,-36883.7087611805,-46682.26649549801,-31065.39321725288,-48329.70182057641
13681.2792636489,7635.445312910714,-33236.35110096349,-42507.72059055813,-36991.55592817735,-46533.85091231477,-31135.175363442348,-48239.065496810144
13667.13060940869,7722.103026163939,-33115.875198349386,-42388.205812955595,-36850.851696831196,-46415.78899810183,-30983.18350114626,-48104.060960300085
13751.039058093913,7639.021592023563,-33237.513391675166,-42534.118000759845,-36721.39039294606,-46542.74690660798,-30893.217729713648,-48174.178382656384
13777.838799695826,7543.981974599597,-33372.31676248512,-42665.65801687932,-36844.77202233935,-46678.4666989406,-31030.3233302025,-48316.96132623689
13675.668975790619,7592.664074023256,-33288.27420333317,-42554.41338472526,-37009.54908246388,-46583.672950705644,-31156.521279397166,-48278.73984321831
13650.120931878202,7711.217726614204,-33133.64483519135,-42397.0571037599,-36896.38220028665,-46428.618899419176,-31028.736356346177,-48127.59734721152
13737.96328758756,7657.059449798996,-33212.94882451878,-42485.391197847275,-36731.31456748421,-46514.740170805475,-30896.63754661531,-48153.74888822423
13791.96510219158,7548.407620001748,-33358.90571581194,-42634.11970545289,-36807.645774799086,-46657.009024263505,-30995.812236763508,-48283.05372989819
13714.024569275925,7589.780698988521,-33301.86406396199,-42562.504716218085,-36984.023390295915,-46592.68070372113,-31138.528125110643,-48272.816630937654
13644.801216697839,7694.766842695099,-33156.15304185785,-42408.09886552082,-36935.18482866107,-46445.62857694967,-31064.610906196944,-48141.29896656263
13724.306371725366,7680.305264032515,-33182.43869333729,-42456.445688777654,-36742.825715878695,-46486.4205105806,-30908.26045373207,-48129.05021060112
13791.540419046929,7557.415373017237,-33350.38970117446,-42631.549254840524,-36776.71096047294,-46653.54450387294,-30969.213660861693,-48268.346282046594
13727.010932804458,7566.8701609218315,-33334.02822423318,-42600.79325447002,-36968.93596278858,-46630.455151850605,-31135.600046587,-48295.72716900434
13653.451341802043,7695.839726428953,-33159.79637620406,-42414.24559524603,-36951.50160211344,-46449.98716711845,-31082.916984905838,-48144.67407997538
13702.04403424788,7695.839726428953,-33156.331855813485,-42426.27083376299,-36760.237724809376,-46453.13876308665,-30915.50241893559,-48102.71985563277
13782.487962542531,7569.26179757855,-33322.98646247226,-42610.85153947491,-36747.2737130253,-46631.30451813991,-30945.677273950256,-48246.061592824655
13735.236374764012,7545.144265311274,-33352.11078549752,-42625.24606290413,-36940.661006052615,-46654.706794584614,-31118.366851611958,-48311.17222442296
13643.303649819334,7660.523970189568,-33191.06646669703,-42446.655624706225,-36980.46946292752,-46487.49339431446,-31115.997566699694,-48180.45922284832
13666.594167541763,7689.514182748102,-33151.68269296679,-42420.794656371436,-36797.14045490509,-46450.43420200756,-30945.677273950256,-48106.25143125671
13749.966174360059,7565.484352765603,-33321.198322915836,-42604.74951323861,-36744.79266939076,-46624.576643058856,-30935.79780290101,-48237.14324678698
13747.596889447796,7532.895509349765,-33367.3770269605,-42639.93115901127,-36902.32776431176,-46666.53086740147,-31083.76635119514,-48310.07698894465
13653.138417379669,7640.1838827352385,-33217.2403594542,-42472.53894478547,-36982.50347167295,-46505.39714162316,-31116.77987775563,-48194.22789743279
13655.50770229193,7697.806679941021,-33140.75268992814,-42399.51579564998,-36819.33573714921,-46424.95321332851,-30953.94741939872,-48087.14068974742
13751.217872049556,7597.357940358871,-33278.260621817186,-42561.655349928784,-36714.28253820926,-46567.602046442276,-30889.194415711692,-48177.03940594666
13766.90879665718,7528.8274918588995,-33364.76187285923,-42646.48022013667,-36855.61261840017,-46662.21698072159,-31037.297074472557,-48290.34039859062
13675.736031023984,7617.675676068745,-33234.00416779568,-42492.655514795246,-36979.664800127124,-46534.454409415055,-31124.69239529281,-48222.99459254678
13638.207452083523,7691.704653704722,-33135.7682509146,-42397.48178690455,-36854.31621722176,-46426.741352884936,-30988.32440237098,-48095.99198055172
13708.302522695367,7590.585361788912,-33276.025447371656,-42551.68647190172,-36743.742137401365,-46564.07047081834,-30911.546160167,-48174.312493123114
13760.87382565425,7508.040369515464,-33386.73363765879,-42657.38787143086,-36849.73410960843,-46680.210135008114,-31031.23975172517,-48298.25291612779
13681.927464238104,7584.304521596971,-33277.6571247169,-42537.87309382833,-36988.24786999796,-46569.54664820989,-31134.102479708494,-48240.45130496637
13643.214242841512,7698.164307852306,-33135.25416079213,-42392.29618219092,-36890.14606358362,-46423.43329470555,-31016.33113817348,-48098.38361720844
13722.451176935576,7649.012821795085,-33215.11694373094,-42489.235697893586,-36725.52546567029,-46510.11335970323,-30890.244947701092,-48133.006469369706
13777.503523528996,7540.562157697936,-33368.60637290554,-42646.36846141439,-36804.22595789742,-46662.64166386624,-30996.192216419247,-48276.90700017298
13706.313217438845,7583.142230885295,-33310.290671621646,-42568.56203896547,-36978.010771037436,-46597.48632877902,-31143.06552923507,-48268.07806111313
13649.2715655889,7701.204145098227,-33141.51264923962,-42396.83358631535,-36921.68437501006,-46433.20100703252,-31058.665342171833,-48117.136730806444
13699.361824913243,7663.541455691035,-33190.01593470763,-42464.492316781565,-36756.259114296336,-46487.33693210327,-30915.92710208024,-48117.24848952872
13761.76789543246,7530.146244781762,-33364.0242652922,-42652.179914972774,-36792.62540252512,-46664.87683831178,-30982.624707534877,-48269.4415175249
13721.132424012712,7552.609747959345,-33332.75417479923,-42603.14018763783,-36965.78436682038,-46628.46584659408,-31129.2968546506,-48280.05859614117
13652.691382490562,7689.201258325727,-33148.508745254134,-42403.96379279659,-36942.471497353494,-46435.79380938933,-31073.126920834417,-48123.32816402056
13707.721377339529,7705.026293400085,-33132.68371017977,-42412.256289989506,-36742.0210530783,-46432.41869597658,-30897.531616393524,-48073.21555295176
13764.271290811455,7553.570872970924,-33336.2186951898,-42625.51428383759,-36751.498192727355,-46636.244253664525,-30942.056291348494,-48237.4338194649
13725.155738014668,7532.381419227293,-33368.91929732791,-42638.85827527741,-36943.052642709335,-46659.15479173122,-31115.50582832168,-48305.80780575369
13653.496045290953,7671.208104039205,-33188.16073991785,-42441.17944731467,-36974.166270991125,-46472.98711216296,-31105.268729361145,-48165.46120231882
13680.228731659501,7704.0428166440515,-33147.65937896483,-42404.63434513025,-36799.04035318379,-46435.23501577795,-30936.870686634862,-48089.35351244849
13766.752334445995,7581.532905284514,-33315.453924590816,-42589.23740258663,-36741.66342516702,-46608.79631147341,-30928.555837697488,-48217.45135992186
13782.890293942726,7556.320137538927,-33346.83577380607,-42617.24413838913,-36885.34043852573,-46643.866198523785,-31072.67988594531,-48282.15966011997
13698.75832781295,7670.559903450001,-33185.99262070568,-42440.68770893666,-36957.246000438456,-46476.83161220928,-31104.039383416104,-48163.36013834002
13687.291882907377,7728.205052400238,-33109.773172113084,-42374.638304071224,-36807.15403642107,-46405.17191948556,-30955.065006621484,-48066.89000927091
13767.691107713117,7616.692199312712,-33261.31799952006,-42542.23168399712,-36711.04153526325,-46566.4397557306,-30904.080677518927,-48176.36885361301
13770.19450309211,7531.956736082642,-33369.96982931731,-42647.53075212607,-36862.8992870926,-46676.723262873085,-31061.749882906664,-48301.69508477391
13689.057670719347,7628.382161662837,-33239.43564169832,-42494.264840396034,-36978.94954430456,-46529.31350819034,-31137.187020443325,-48207.48248189479
13664.627214029697,7712.558831281523,-33122.17839028578,-42381.4555861301,-36854.539734666316,-46418.47120743647,-31000.930786243774,-48087.006579280685
13742.701857412083,7619.687333069723,-33241.000263810194,-42524.17147447723,-36719.98223304537,-46549.22891250002,-30912.283767734025,-48163.74011799576
13780.945692175113,7527.553442424946,-33370.28275373969,-42650.168257971796,-36822.08500171721,-46676.3656349618,-31035.061900027027,-48293.42493932545
13699.875915035715,7596.083890924918,-33268.2023368123,-42526.80898032296,-36972.78046283489,-46564.47280221854,-31143.892543779915,-48234.14811302997
13654.07719064679,7702.075863131984,-33124.681785664776,-42376.605257583295,-36881.42888324605,-46419.05235279231,-31032.4243941813,-48091.901611316396
13728.106168282768,7649.862188084387,-33202.398801135874,-42467.1745261162,-36713.85785506461,-46497.551679319346,-30897.062229759962,-48115.37094299447
13777.190599106623,7529.878023848299,-33361.99025654677,-42640.57935960047,-36790.72550424642,-46661.077041754375,-30994.359373373914,-48262.37836627703
13698.177182457111,7560.276396307516,-33314.5151513237,-42570.3501785219,-36971.707579101036,-46605.22003236056,-31143.44550889081,-48260.92550288743
13628.707960690017,7677.466592486691,-33155.773062202104,-42399.78401658345,-36925.283005867364,-46439.0124605909,-31070.42235975532,-48116.577937195056
13687.89538000767,7650.577443906956,-33195.76033303265,-42459.865505679314,-36747.161954303025,-46486.26404836942,-30924.331357995437,-48111.14646329242
13773.882540927238,7541.992669343075,-33346.58990461706,-42624.75432452611,-36753.06281483923,-46644.760268302,-30968.543108528032,-48245.279281768715
13719.925429812125,7545.25602403355,-33330.206075931324,-42595.87587068986,-36943.41027062062,-46627.929404727154,-31129.967406984262,-48277.97988390683
13655.664164503118,7681.1546303218165,-33144.95481788574,-42398.21939447158,-36924.50069481143,-46439.99593734693,-31075.786778424597,-48120.57889945256
13681.078097948803,7668.99528133813,-33162.52328902761,-42415.29612723543,-36757.60021896365,-46451.64119620815,-30925.91833185176,-48088.258276970184
13752.737790672516,7534.929518095198,-33339.370291158,-42604.12366439387,-36743.2727507678,-46627.996459960515,-30948.6053524739,-48226.28029898171
13728.530851427418,7517.942192309165,-33355.06121576562,-42616.14890291082,-36918.42102031958,-46652.270454438985,-31112.10836316447,-48287.68054100043
13643.013077141415,7637.881653056343,-33186.685524783796,-42424.88502560676,-36965.73966333147,-46482.71012100102,-31118.813886501062,-48163.069565662096
13671.019812943914,7686.809621669009,-33132.639006690864,-42372.02314996996,-36782.8353384537,-46425.35554472871,-30943.442099504722,-48076.724776831245
13770.52977925894,7583.991597174597,-33275.533708993644,-42538.20836999516,-36704.850102049124,-46577.07918609133,-30905.041802530504,-48175.18421115688
13759.890348898214,7525.810006357433,-33351.529640141685,-42609.1081034074,-36879.081950078245,-46648.91769277069,-31076.837310413997,-48267.60867447957
13677.904150236149,7642.016725780574,-33196.29677489958,-42433.87042687779,-36966.85725055424,-46485.951123947045,-31120.043232446104,-48157.99571967074
13686.04018521788,7714.570488282501,-33090.95300328171,-42335.90273093018,-36794.14532114808,-46384.38479714213,-30945.476108250157,-48033.809427477056
13764.15953208918,7598.430824092726,-33248.17517378034,-42510.40279989276,-36701.49734038083,-46544.803267097865,-30893.709468091663,-48143.087106119056
13772.429677537642,7518.076302775897,-33358.68219836738,-42620.2616238906,-36849.8458683307,-46656.20436146312,-31049.34466473397,-48271.855505926076
13687.828324774306,7611.484242854624,-33231.25490322768,-42475.19880237566,-36974.34508494676,-46526.38542966669,-31129.855648261982,-48194.473766621806
13653.406638313132,7692.084633360462,-33123.5194949531,-42360.93668472012,-36864.262743504376,-46411.631573633145,-30998.248576909136,-48071.47211688425
13737.00216257598,7613.071216710951,-33226.51633340315,-42486.91111647023,-36711.82384631918,-46524.41847615463,-30890.691982590197,-48131.28538504665
13779.984567163536,7522.837224344877,-33357.542259400165,-42613.9584319542,-36810.37268762263,-46653.38804166175,-31007.502199113635,-48259.9420261314
13709.71068259605,7603.50467008408,-33251.43852847082,-42485.12297691381,-36961.09050048477,-46537.963633294545,-31117.11515392246,-48202.34158067007
13665.923615208105,7710.770691725099,-33100.050163275024,-42329.51013201596,-36868.57663018425,-46386.262343676375,-30999.880254254374,-48053.255445153176
13733.425883463131,7649.906891573298,-33176.78370199009,-42429.802409386924,-36708.33697418415,-46472.54007727386,-30874.710485304655,-48084.72670134625
13788.031195167447,7533.856634361343,-33334.98934924476,-42596.47936779015,-36774.27462032731,-46631.215111162084,-30967.93961142774,-48229.901281583465
13711.029435518914,7560.656375963256,-33300.34414533903,-42539.214198495654,-36959.01178825042,-46583.38237802772,-31124.893560992907,-48233.96929907433
13647.058742887824,7686.608455968912,-33127.676919421785,-42364.35650162178,-36912.65427025012,-46419.78996035933,-31053.882068858395,-48092.28159097214
13719.52309841193,7677.176019808772,-33141.91498063981,-42402.37681894026,-36720.20575048992,-46450.32244328528,-30891.02725875703,-48072.50029712919
13778.3528898183,7539.466922219625,-33331.055442220626,-42604.011905671585,-36754.89565788456,-46638.54648334342,-30956.853146177906,-48229.32013622763
13737.695066654094,7555.850750905365,-33316.079773435566,-42560.98479759512,-36931.25092163693,-46610.316230096374,-31109.15793289637,-48247.35799400306
13654.07719064679,7670.537551705546,-33144.105451596435,-42383.1543187087,-36937.6211688067,-46440.95706235851,-31081.754694194162,-48111.79466388162
13686.889551507182,7671.141048805839,-33140.41741376131,-42400.27575496146,-36760.595352720666,-46443.97454785997,-30926.074794062948,-48072.47794538474
13784.58902652133,7564.299710309471,-33292.945717924325,-42561.096556317396,-36720.384564445565,-46602.87309919275,-30922.654977161288,-48195.21137418883
13748.62506969274,7532.0014395715525,-33333.40237538843,-42593.730103222144,-36901.8583776782,-46639.77582928847,-31093.265842588648,-48269.17329659144
13655.664164503118,7645.950632804708,-33178.16951014633,-42421.57696742737,-36968.913611044125,-46479.26795235491,-31115.528180066132,-48151.267844589696
13674.998423456958,7691.078804859973,-33122.13368679687,-42370.90556274719,-36785.56225127724,-46422.740390627434,-30945.051425105506,-48060.430355123324
13753.318936028354,7566.713698710644,-33294.57739526956,-42562.66117842927,-36724.27376798079,-46602.001381158996,-30926.186552785228,-48191.88096426499
13753.34128777281,7517.24928823105,-33365.007742048234,-42623.56968206998,-36888.98377287194,-46669.302483713924,-31090.67304023183,-48288.32874158964
13670.908054221638,7636.540548389024,-33207.3385366605,-42441.96175837061,-36972.93692504608,-46501.21736541002,-31129.900351750894,-48170.557400054626
13669.254025131944,7708.982552168674,-33109.25908199061,-42347.5479897914,-36819.00046098238,-46410.11165501019,-30970.018323662083,-48063.581951091524
13769.76981994746,7622.391894148815,-33234.652368384886,-42493.10254968436,-36694.031857732756,-46539.707069362055,-30885.908709276762,-48139.39906828393
13770.306261814389,7525.810006357433,-33367.86876533851,-42622.85442624741,-36847.36482469617,-46662.79812607743,-31046.349530976957,-48265.39585177849
13674.730202523495,7602.610600305868,-33253.18196453834,-42493.7283985291,-36993.07584680031,-46546.59140665429,-31151.849764806007,-48204.48734813778
13649.293917333356,7702.209973598716,-33120.25614026262,-42363.30596963238,-36866.497917949906,-46419.63349814815,-31010.85496078193,-48069.50516337218
13737.046866064891,7628.002182007097,-33224.43762116881,-42478.663322766224,-36713.88020680907,-46528.866473301234,-30902.56075889597,-48123.9093093764
13783.15851487619,7529.028657558997,-33354.43536692087,-42613.91372846529,-36811.7361440344,-46657.67957659717,-31020.175638219793,-48253.527075472724
13697.2831126789,7579.007158161064,-33275.600764227005,-42516.147198217775,-36979.21776523802,-46569.25607553197,-31150.82158456106,-48217.250194221764
13644.13066436418,7685.289703046049,-33124.324157753486,-42359.19324865261,-36894.61641247469,-46417.018344046875,-31044.851964098452,-48072.32148317355
13710.09066225179,7632.360772175882,-33199.537777845595,-42451.617711975305,-36728.74411687185,-46497.126996174695,-30912.26141598957,-48099.54590792012
13767.735811202028,7517.025770786497,-33362.59375364706,-42621.02158320208,-36796.35814384915,-46663.580437133365,-31007.882178769374,-48255.136401073505
13713.599886131275,7569.6864807232005,-33304.412162829896,-42534.743849604594,-36961.8728115407,-46596.27933457844,-31144.004302502195,-48244.586377690604
13646.477597531986,7693.224572327683,-33138.18223931578,-42359.819097497355,-36924.14306690014,-46426.56253892929,-31070.020028355128,-48092.19218399432
13701.798165058872,7672.102173817418,-33163.75263497265,-42406.19896724212,-36742.71395715642,-46460.00074863443,-30916.64235790281,-48073.66258784087
13772.429677537642,7544.518416466524,-33330.40724163142,-42591.40552179879,-36755.834431151685,-46635.08196295285,-30965.570326515477,-48220.51354891223
13730.967191573047,7550.754553169555,-33320.97480547128,-42564.65048368579,-36933.93313097157,-46620.46392207908,-31122.546627825097,-48253.99646210628
13659.218091871511,7678.338310520448,-33142.54082948456,-42374.83946977132,-36931.94382571505,-46437.47019022348,-31084.01222038415,-48100.574088165056
13686.017833473425,7675.723156419177,-33139.65745444983,-42385.03186524294,-36759.65657945354,-46438.8112948908,-30930.45573597619,-48056.89877949939
13768.58517749133,7551.939195625687,-33308.72604950977,-42566.01394009757,-36723.402049947035,-46611.36676208577,-30937.49653547961,-48192.01507473172
13743.618278934751,7524.625363901301,-33346.433442405876,-42592.52310902156,-36902.03719163385,-46641.4075066337,-31098.518502535644,-48258.22094180834
13660.201568627546,7649.795132851021,-33170.90519319835,-42404.075551518865,-36947.61239857822,-46465.3651673037,-31103.704107249276,-48126.05507684411
13668.717583265017,7690.0729763594845,-33120.50200945163,-42358.790917252416,-36776.867422684125,-46416.68306788005,-30945.006721616595,-48044.18063690432
13762.147875088202,7579.163620372251,-33273.41029327039,-42527.546587889985,-36698.05517173471,-46574.68754943461,-30909.042764788006,-48156.989891170255
13760.359735531776,7522.814872600422,-33350.479108152285,-42592.411350299284,-36856.841964345214,-46643.08388746785,-31061.57106895102,-48250.91192137145
13648.064571388313,7602.811766005965,-33225.57756013603,-42452.71294745361,-36977.76490184843,-46512.41558938212,-31133.58838958602,-48169.506868065226
13640.621440484696,7678.070089586984,-33129.73327991167,-42367.597504567806,-36830.33279542122,-46421.39928596011,-30979.540166800045,-48059.75980278967
13725.938049070604,7586.047957664485,-33263.12849082095,-42524.12677098832,-36717.70235511093,-46563.51167720696,-30907.67930837623,-48148.83150444407
13755.509406984975,7510.208488727629,-33366.88528858248,-42618.67465003427,-36846.87308631815,-46670.084794769864,-31048.182374022294,-48270.40264253648
13686.822496273817,7611.573649832446,-33238.698034131296,-42465.29697958195,-36968.64539011066,-46530.22992971301,-31128.738061039217,-48187.09769095155
13664.783676240884,7715.464558060713,-33094.685744605755,-42324.101009857775,-36830.39985065459,-46392.76670131287,-30983.541129057543,-48041.47607582522
13739.751427143983,7633.74658033211,-33204.633975581404,-42455.529267254984,-36688.33216289666,-46510.98507773699,-30882.131264463816,-48103.27864924415
13790.668701013174,7534.504834950547,-33335.369328900495,-42594.35595206689,-36782.65652449805,-46643.866198523785,-30994.38172511837,-48234.59514791908
13703.362787170743,7580.124745383829,-33267.01769435617,-42506.446541124176,-36956.01665449341,-46565.63509293021,-31128.69335755031,-48210.63407786299
13645.538824264864,7684.775612923577,-33118.065669306,-42352.73359450503,-36884.20049955851,-46417.42067544707,-31033.89960931535,-48072.120317473455
13724.306371725366,7647.381144449848,-33177.27544036811,-42425.86850236279,-36702.39141015904,-46483.44772856805,-30886.78042731052,-48082.849154812
13789.39465157922,7535.622422173313,-33329.51317185321,-42587.181042096745,-36753.26398053932,-46641.09458221133,-30956.942553155728,-48222.905185568954
13729.268458994444,7570.222922590127,-33276.13720609393,-42521.601023864874,-36928.63576753566,-46584.164689083664,-31101.826560715028,-48219.3289064561
13660.51449304992,7688.32954029197,-33115.092887293446,-42350.34195784831,-36899.19852008802,-46418.11357952518,-31043.264990242125,-48075.8977622864
13719.366636200743,7677.8689238868865,-33143.70312019624,-42386.52943212145,-36720.36221270111,-46444.19806530453,-30890.06613374545,-48053.00957596416
13795.451974326608,7552.296823536972,-33315.78920075765,-42571.95950412268,-36733.01330006281,-46625.336602370335,-30939.105861080392,-48204.375589415504
13754.213005806567,7554.375535771315,-33307.49670356473,-42545.18211426522,-36907.803941703314,-46613.42312257566,-31095.992755412193,-48240.45130496637
13667.823513486805,7672.482153473157,-33142.429070762286,-42368.44687085711,-36922.913720955105,-46439.68301292456,-31069.19301381028,-48100.37292246496
13700.099432480269,7685.870848401886,-33129.33094851148,-42365.831716755834,-36744.54680020175,-46425.51200693989,-30908.171046754247,-48042.21368339225
13784.119639887767,7568.658300478256,-33299.45007556082,-42555.1956957812,-36707.867587550594,-46600.92849742514,-30913.557817167977,-48177.195868157854
13753.609508706273,7531.979087827098,-33341.78427955917,-42588.54449850851,-36885.34043852573,-46643.240349679036,-31077.999601125674,-48254.085869084105
13663.710792507029,7654.310185230993,-33181.07523692551,-42400.946307295126,-36941.219799664,-46469.25437083893,-31089.287232075603,-48123.75284716521
13672.584435055785,7700.846517186942,-33122.17839028578,-42351.995986938,-36772.91116391554,-46413.173844000565,-30927.482953963634,-48036.178712389315
13750.659078438173,7577.6660534937455,-33277.81358692808,-42536.73315486111,-36695.283555422255,-46581.05779660437,-30894.44707565869,-48151.536065523156
13750.569671460353,7515.7964248414555,-33357.63166637799,-42609.51043480759,-36858.49599343491,-46659.08773649785,-31057.167775293325,-48256.477505740826
13665.878911719194,7619.7543883030885,-33212.03240299611,-42442.58760721536,-36955.72608181549,-46506.51472884593,-31114.43294458782,-48159.850914460534
13656.714696492518,7696.353816551426,-33119.5185326956,-42348.68792875861,-36811.24440565639,-46405.88717530813,-30959.177727601258,-48038.41388683485
13740.131406799723,7595.256876380072,-33250.81267962607,-42503.67492481171,-36696.73641881185,-46549.49713343348,-30884.992287754096,-48126.56916696658
13764.695973956106,7514.388264940771,-33361.96790480231,-42609.398676085315,-36819.84982727168,-46661.85935281031,-31026.925865045294,-48252.16361906095
13669.678708276595,7590.78652748901,-33257.02646458465,-42489.97330546061,-36970.50058490045,-46549.65359564467,-31133.40957563038,-48195.90427826694
13633.692399703552,7689.670644959288,-33122.848942619436,-42356.42163234015,-36859.211249257474,-46417.5547859138,-31005.624652579387,-48061.25736966817
13716.595019888286,7618.972077247153,-33221.59894962299,-42466.571029015904,-36702.57022411469,-46524.84315929928,-30889.35087792288,-48111.21351852579
13767.422886779654,7515.438796930171,-33354.86005006552,-42607.655240017804,-36793.87710021462,-46668.81074533591,-31003.90356825633,-48255.58343596261
13706.067348249835,7584.416280319248,-33260.513336719676,-42498.735189287094,-36947.67945381159,-46569.3901859987,-31122.21135165827,-48209.762359829234
13645.248251586945,7694.990360139652,-33121.28432050757,-42344.55285603438,-36883.418188502576,-46417.17480625806,-31026.27766445609,-48063.0455092246
13700.345301669277,7644.587176392934,-33190.70883878575,-42434.94331061165,-36717.74705859984,-46498.043417697365,-30898.20216872718,-48087.02893102514
13767.177017590646,7525.7205993796115,-33348.06511975111,-42605.26360336108,-36768.75373944685,-46661.278207454474,-30979.294297611035,-48232.85171185157
13709.956551785059,7555.649585205268,-33303.361630840496,-42544.533913676016,-36949.959331746024,-46611.567927785865,-31124.670043548354,-48236.24917700877
13643.907146919626,7677.958330864708,-33134.98593985867,-42365.697606289104,-36918.62218601968,-46443.169885059586,-31068.701275432264,-48094.27089622866
13697.528981867908,7666.290720259038,-33155.504841268645,-42400.47692066156,-36742.93747460097,-46466.28158882637,-30916.038860802517,-48071.98620700672
13774.642500238717,7544.451361233158,-33321.57830257157,-42580.83314667144,-36744.94913160195,-46639.44055312163,-30954.12623335436,-48215.5291098987
13737.851528865282,7547.535901967991,-33319.87956999297,-42558.861381871866,-36920.72324999848,-46628.778771016456,-31107.570959040044,-48247.29093876969
13651.372629567699,7666.84951387042,-33157.69531222526,-42375.130042449244,-36948.19354393405,-46459.173734089585,-31094.830464700517,-48112.97930633775
13683.89441775017,7687.860153658409,-33125.84407637645,-42358.81326899687,-36763.098748099655,-46432.86573086569,-30921.537389938523,-48045.16411366035
13769.255729824989,7563.673861464723,-33290.48702603424,-42542.09757353039,-36715.131904498565,-46607.32109633936,-30918.318738736958,-48177.15116466894
13757.006973863481,7537.656430918745,-33323.03116596117,-42568.025597098545,-36882.52411872437,-46640.51343685549,-31076.122054591426,-48245.88277886901
13664.761324496429,7649.616318895379,-33169.80995772004,-42391.51387113499,-36948.3723578897,-46477.47981279848,-31099.032592658117,-48126.97149836677
13679.178199670101,7701.204145098227,-33094.90926205031,-42328.95133840458,-36776.599201750665,-46409.530509654345,-30932.288579021526,-48032.9377094433
13768.428715280143,7587.053786164974,-33251.282066259635,-42505.597174834875,-36688.62273557457,-46568.49611622049,-30886.892186032797,-48139.644937472935
13762.773723932949,7517.0928260198625,-33344.4217854049,-42590.55615550949,-36851.34343520921,-46656.33847192985,-31046.684807143785,-48248.497932970284
13679.915807237127,7625.163510461272,-33198.71076330075,-42419.07357204838,-36953.177982947585,-46501.48558634348,-31103.3911828269,-48147.08806837655
13667.890568720171,7699.974799153185,-33091.57885212646,-42320.43532376711,-36807.60107131017,-46399.38281767164,-30956.249649077614,-48026.679220995815
13747.619241192251,7605.896306740798,-33228.1927142373,-42473.924752941704,-36689.136825697045,-46535.01320302644,-30876.051589971972,-48110.45355921431
13768.763991446971,7515.863480074821,-33356.11174775502,-42593.126606121856,-36827.47177213094,-46659.57947487587,-31021.71790858721,-48244.228749779315
13685.034356717391,7596.732091514122,-33244.06245280057,-42457.85384867834,-36964.24209645297,-46539.4835519175,-31123.395994114402,-48181.040368204165
13651.685553990073,7697.627865985378,-33114.86936984889,-42327.23025408152,-36859.52417367985,-46408.36821894267,-31003.791809534054,-48055.8929509989
13737.695066654094,7636.674658855755,-33205.550397104074,-42439.815990902905,-36702.92785202597,-46499.518632831416,-30881.572470852432,-48089.04058802612
13789.461706812586,7534.303669250449,-33346.83577380607,-42583.895335661815,-36785.62930651061,-46638.479428110055,-30985.575137802978,-48212.131644741494
13715.320970454333,7585.556219286468,-33274.1031973485,-42495.15891017424,-36956.70955857153,-46564.96454059655,-31121.294930135602,-48193.624400332505
13664.537807051875,7708.6696277463,-33117.88685535036,-42328.68311747112,-36886.16745307058,-46406.267154963876,-31026.992920278662,-48052.204913163776
13736.91275559816,7679.90293263232,-33165.38431231789,-42394.03961825844,-36703.55370087072,-46469.790812705854,-30883.427665642223,-48062.91139875787
13803.453898841608,7560.231692818606,-33320.281901393166,-42564.13639356332,-36744.70326241294,-46630.522207083966,-30955.3555792994,-48203.481519637295
13741.025476577935,7578.090736638396,-33289.7047149783,-42514.18024470571,-36928.03227043537,-46590.78080544243,-31105.715764250253,-48209.40473191795
13668.918748965116,7699.416005541802,-33123.13951529736,-42333.265225084455,-36901.07606662227,-46419.70055338151,-31044.270818742614,-48060.69857605679
13702.491069136986,7671.319862761482,-33159.57285875951,-42383.69076057563,-36733.5720936742,-46461.31950155729,-30900.97378503964,-48053.456610853274
13772.899064171204,7539.489273964081,-33334.20703818882,-42575.24521055761,-36741.93164610048,-46644.80497179091,-30948.381835029348,-48206.36489467203
13729.067293294347,7528.179291269696,-33340.689044080864,-42570.551344221996,-36929.50748556942,-46648.42595439267,-31116.511656822167,-48254.33173827312
13651.015001656415,7657.573539921468,-33165.83134720699,-42377.454623872596,-36945.44427936605,-46466.84038243775,-31096.10451413447,-48112.39816098192
13688.744746296972,7687.167249580294,-33131.29790202354,-42354.11940266126,-36753.91218112853,-46435.6596989226,-30918.74342188161,-48041.07374442503
13767.802866435393,7557.191855572683,-33307.206130886814,-42543.50573343107,-36717.05415452173,-46617.714657511075,-30921.6491486608,-48180.23570540377
13750.413209249165,7517.070474275408,-33354.30125645414,-42580.72138794916,-36891.19659557302,-46663.40162317773,-31088.14729310838,-48260.947854631886
13669.656356532141,7641.32382170246,-33185.16560616084,-42395.96186828159,-36955.23434343748,-46486.46521406952,-31106.028688672628,-48130.503073990716
13690.599941086763,7709.027255657585,-33097.92674755177,-42318.98246037751,-36776.867422684125,-46403.76375958488,-30931.998006343605,-48021.918299426834
13779.716346230072,7597.31323686996,-33244.64359815641,-42488.60984904884,-36686.11934019558,-46558.12490679323,-30881.997153997083,-48123.842254143034
13774.083706627334,7520.937326066176,-33347.43927090636,-42585.48230951814,-36849.55529565278,-46657.12078298578,-31042.370920463913,-48242.0382788227
13679.267606647922,7612.892402755309,-33216.27923444262,-42431.45643847662,-36967.70661684354,-46518.4282086406,-31115.72934576623,-48157.63809175946
13670.125743165701,7695.213877584205,-33100.58660514195,-42325.71033545856,-36818.70988830446,-46405.01545727438,-30960.51883226858,-48028.847340207976
13735.392836975197,7583.298693096483,-33248.15282203589,-42489.41451184923,-36701.60909910311,-46552.38050846822,-30884.83582554291,-48114.78979763864
13755.576462218341,7484.369872137293,-33378.575250932605,-42619.90399597931,-36837.418298413555,-46682.177088520184,-31031.016234280618,-48255.762249918254
13679.08879269228,7568.814762689443,-33256.244153528714,-42485.61471529183,-36967.39369242117,-46558.8401626158,-31125.96644472676,-48189.73519679728
13635.88287066017,7663.0720690574735,-33121.70900365222,-42340.82011471035,-36864.70977839348,-46427.41190521859,-31006.80929503552,-48054.66360505386
13721.66886587964,7608.422053864248,-33204.790437792595,-42436.39617400124,-36703.28547993726,-46516.707124317545,-30883.718238320143,-48088.347683948006
13770.19450309211,7501.647770601246,-33351.864916308514,-42587.62807698585,-36788.60208852316,-46660.361785931804,-30991.94538497274,-48228.33665947159
13699.942970269081,7554.710811938145,-33275.13137759345,-42493.281363639995,-36957.223648694,-46576.40863375767,-31124.670043548354,-48203.66033359293
13656.290013347867,7681.691072188744,-33103.291166221046,-42316.344954531785,-36883.261726291385,-46404.9036985521,-31023.975434777196,-48044.13593341541
13717.466737922043,7644.631879881845,-33162.59034426098,-42389.01047575599,-36711.62268061908,-46467.130955115674,-30881.21484294115,-48054.03775620911
13771.2003315926,7512.845994573355,-33333.46943062179,-42575.82635591344,-36763.9257626445,-46646.28018692496,-30960.183556101747,-48212.288106952685
13723.211136247057,7543.222015288117,-33287.760113210694,-42519.142331974785,-36929.127505913675,-46601.308477080885,-31106.118095650447,-48222.65931637995
13643.527167263886,7660.7251358896665,-33126.626387432385,-42344.1952281231,-36907.13338936966,-46426.54018718484,-31051.177507779303,-48077.12710823144
13692.142211454178,7654.667813142278,-33130.29207352306,-42373.09603370381,-36721.926834812984,-46438.07368732378,-30882.77946505302,-48035.8881397114
13773.81548569387,7530.392113970771,-33298.42189531588,-42555.37450973684,-36713.79079983125,-46612.976087686555,-30912.194360756203,-48174.91599022341
13740.600793433285,7529.810968614933,-33298.64541276043,-42544.77978286502,-36886.79330191533,-46610.89737545221,-31066.37669400891,-48216.9819732883
13646.812873698816,7644.386010692837,-33142.98786437367,-42374.05715871539,-36926.15472390112,-46450.52360898538,-31066.130824819902,-48097.46719568577
13675.668975790619,7674.47145872968,-33110.51077968011,-42352.10774566028,-36744.010358334825,-46417.1077510247,-30895.251738459083,-48028.82498846352
13762.661965210673,7558.220035817628,-33267.44237750082,-42529.11121000185,-36680.37494187056,-46581.39307277121,-30874.084636459906,-48149.993795155744
13747.261613280967,7521.004381299542,-33317.97967171427,-42575.24521055761,-36853.80212709929,-46625.11308492578,-31042.415623952824,-48234.2822234967
13656.401772070143,7632.897214042809,-33168.40179781935,-42400.18634798365,-36928.41225009111,-46457.631463722166,-31067.56133646504,-48115.125073805466
13652.065533645813,7680.931112877263,-33104.27464297708,-42337.95909142007,-36772.9782191489,-46393.77252981336,-30913.82603810144,-48025.51693028414
13734.3423049858,7567.6301202333125,-33259.70867391928,-42503.67492481171,-36682.31954363818,-46547.41842119914,-30867.043836956484,-48135.666326959894
13746.524005713942,7501.357197923327,-33349.33916918506,-42592.52310902156,-36832.18799021101,-46634.70198329711,-31017.985167263174,-48244.02758407922
13661.162693639124,7602.185917161217,-33215.11694373094,-42436.84320889035,-36943.87965725418,-46491.71787401651,-31087.186168096803,-48155.35821382501
13643.281298074879,7685.513220490601,-33108.655584890315,-42331.097105872286,-36809.94800447798,-46380.80851802928,-30942.682140193243,-48031.30603209806
13722.3394182133,7592.7534810010775,-33238.85449634248,-42481.41258733423,-36686.85694776261,-46512.795569037866,-30856.136185662293,-48109.98417258074
13758.90687214218,7506.252229959039,-33355.374140187996,-42602.693152748725,-36798.392152594584,-46632.93619548514,-30983.831701735464,-48242.82058987863
13688.968263741526,7595.1004141688845,-33240.016787054155,-42465.4757935376,-36931.429735592574,-46505.732417789986,-31073.752769679162,-48176.23474314627
13642.163710852112,7686.9660838801965,-33107.60505290092,-42334.96395766306,-36829.99751925439,-46370.03497720182,-30957.4566432782,-48041.31961361404
13731.615392162252,7638.999240279108,-33180.00235319166,-42434.29511002244,-36658.380825326545,-46450.367146774195,-30827.391842292767,-48072.679111084835
13776.050660139403,7523.44072144517,-33336.82219229009,-42592.43370204374,-36742.4233844785,-46603.14132012622,-30933.495573222113,-48220.178272745405
13709.509516895952,7574.246236592083,-33262.5026419762,-42500.478625354604,-36904.83115969076,-46520.551624363856,-31061.124034061915,-48195.88192652249
13646.70111497654,7689.00009262563,-33102.03946853155,-42343.21175136707,-36848.750632852396,-46362.54714280929,-30977.08147490996,-48058.88808475591
13701.03820574739,7646.12944676035,-33161.80803320504,-42422.471037205585,-36681.76075002679,-46427.23309126295,-30843.10511864485,-48074.288436685616
13772.809657193382,7530.392113970771,-33328.84261951955,-42594.71357997818,-36721.63626213506,-46594.91587816666,-30913.26724449006,-48222.99459254678
13723.05467403587,7557.1248003393175,-33290.66583998988,-42550.61358816786,-36890.66015370609,-46555.77797362542,-31060.744054406176,-48236.763267131246
13639.79442593985,7670.492848216635,-33126.64873917684,-42377.521679105965,-36878.74667391142,-46387.871669277156,-31020.063879497517,-48096.237849740726
13689.012967230436,7666.558941192501,-33128.168657799804,-42394.777225825455,-36695.10474146661,-46393.66077109108,-30858.997208952573,-48055.28945389861
13766.19354083461,7536.53884369598,-33305.30623260811,-42581.7495681941,-36688.421569874474,-46570.4407179881,-30892.50247389108,-48194.741987555266
13731.324819484333,7520.49029117707,-33326.45098286283,-42595.630001500846,-36876.62325818816,-46587.875078663244,-31063.023932340617,-48253.28120628372
13650.411504556121,7646.777647349554,-33155.70600696874,-42409.7081911216,-36910.57555801577,-46411.13983525513,-31055.84902237046,-48118.63429768495
13675.13253392369,7677.42188899778,-33117.10454429442,-42372.73840579252,-36730.19698026145,-46375.44409936001,-30892.43541865771,-48048.58393056202
13755.91173838517,7548.698192679667,-33286.575470754564,-42561.923570862244,-36679.52557558126,-46554.25805500246,-30883.49472087559,-48180.9733129708
13733.872918352237,7495.344578664849,-33350.36734943001,-42618.92051922328,-36853.980941054935,-46613.35606734229,-31052.00452232415,-48268.86037216907
13645.31530682031,7613.8311760224315,-33195.492112099186,-42436.82085714589,-36934.89425598315,-46445.49446648294,-31083.1852058393,-48149.12207712199
13645.784693453872,7674.0467755850295,-33117.953910583725,-42367.88807724573,-36772.62059123762,-46373.00775921438,-30923.92902659524,-48049.32153812904
13743.10418881228,7572.391041802292,-33253.74075814972,-42531.14521874729,-36667.880316720046,-46524.954918021554,-30866.328581133916,-48148.33976606605
13760.136218087224,7505.4699189031035,-33342.07485223709,-42615.29953662152,-36815.42418186953,-46614.294840609415,-31014.587702105964,-48259.22677030883
13670.393964099165,7598.654341537278,-33214.66990884184,-42463.97822665909,-36939.23049440748,-46480.229077366486,-31093.66817398884,-48178.22404840279
13653.473693546499,7691.8387641714535,-33094.97631728367,-42343.63643451172,-36798.2356903834,-46359.8425817302,-30944.738500683132,-48045.633500293916
13733.269421251944,7603.370559617349,-33212.92647277433,-42482.82074723492,-36662.426491072954,-46478.753862232435,-30843.596857022865,-48099.99294280922
13765.612395478773,7507.459224159626,-33339.727919069286,-42607.655240017804,-36776.48744302839,-46600.77203521395,-30969.861861450896,-48225.76620885923
13679.669938048119,7574.380347058815,-33242.4978306887,-42492.99079096208,-36923.27134886639,-46498.49045258647,-31080.793569182584,-48183.02967346069
13645.672934731596,7690.0729763594845,-33092.33881143794,-42333.198169851086,-36818.21814992645,-46345.47041004544,-30956.4061112888,-48038.011555434656
13718.852546078271,7627.376333162348,-33169.78760597558,-42440.35243276983,-36655.34098808062,-46436.10673381171,-30832.82331619541,-48072.187372706816
13770.82035193686,7513.851823073844,-33325.9145409959,-42594.53476602254,-36737.237779764866,-46592.904221165685,-30937.40712850179,-48217.317249455125
13694.243275432978,7550.329870024904,-33273.20912757029,-42523.54562563248,-36919.06922090879,-46529.000583767964,-31081.53117674961,-48208.33184818409
13636.307553804822,7671.789249395043,-33105.235767988655,-42355.23698988402,-36858.33953122372,-46364.379985854626,-30997.153341430825,-48062.97845399123
13696.053766733858,7640.116827501873,-33161.31629482702,-42406.44483643113,-36689.02506697477,-46414.71611436798,-30852.224630382614,-48057.47992485523
13761.633784965728,7517.025770786497,-33321.62300606049,-42589.818547942465,-36722.418573191,-46589.23853507502,-30920.442154460212,-48204.040313248675
13706.335569183299,7531.8226256159105,-33295.78438947015,-42553.80988762497,-36907.08868588074,-46564.517505707445,-31081.017086627136,-48230.84005485059
13641.56021375182,7665.03902256954,-33118.60211117293,-42360.668463786664,-36888.49203449393,-46380.18266918453,-31027.48465865668,-48079.742262332715
13694.779717299905,7673.711499418199,-33113.349451225935,-42366.92695223415,-36697.45167463442,-46379.2438959174,-30859.421892097223,-48032.043639665084
13777.972910162558,7551.805085158955,-33284.63086898695,-42553.4969632026,-36680.57610757066,-46557.43200271511,-30881.52776736352,-48173.08314717808
13742.567746945351,7530.615631415324,-33307.65316577592,-42569.679626188234,-36866.47556620545,-46581.16955532665,-31046.505993188144,-48236.204473519865
13658.905167449138,7655.0924962869285,-33144.44072776326,-42391.53622287944,-36906.44048529154,-46412.03390503334,-31042.86265884193,-48109.872413858466
13680.362842126233,7687.390767024847,-33101.055991775516,-42358.05330968539,-36725.19018950345,-46376.98636972742,-30878.53263360651,-48038.8385699795
13779.761049718983,7583.11987914084,-33251.77380463765,-42521.69043084269,-36655.0504154027,-46530.609909368744,-30851.598781537865,-48151.15608586742
13761.946709388103,7527.911070336231,-33322.56177932761,-42582.88950716132,-36830.95864426597,-46594.62530548874,-31017.761649818618,-48242.39590673398
13657.765228481918,7617.675676068745,-33182.416341592834,-42427.38842098575,-36926.84762797924,-46450.54596072983,-31072.165795822835,-48143.60119624152
13663.151998895646,7685.893200146342,-33094.97631728367,-42344.463449056566,-36759.097785842154,-46362.480087575925,-30904.572415896946,-48032.11069489845
13741.696028911594,7566.289015565993,-33256.82529888455,-42523.210349465655,-36670.11549116558,-46526.51954013343,-30862.05939794295,-48145.21052184231
13765.545340245408,7503.257096202028,-33343.08068073758,-42604.74951323861,-36807.221091654435,-46614.25013712051,-31009.871484025894,-48256.43280225191
13682.352147382755,7600.151908415784,-33208.03144073861,-42448.264950307006,-36921.39380233214,-46469.83551619477,-31077.06082785855,-48163.002510428734
13655.284184847378,7686.340235035448,-33093.72461959417,-42331.56649250585,-36791.44076006899,-46348.577302524725,-30933.11559356637,-48028.355601829964
13740.53373819992,7604.93518172922,-33209.685469828306,-42474.03651166398,-36658.78315672674,-46471.15426911763,-30842.233400611094,-48096.103739273996
13768.763991446971,7503.480613646581,-33344.37708191598,-42605.7553417391,-36768.194945835465,-46604.862404449275,-30971.42648356277,-48229.29778448317
13678.954682225549,7567.138381855296,-33256.802947140095,-42492.36494211733,-36929.418078591596,-46502.40200786615,-31088.39316229739,-48180.749795526244
13646.477597531986,7686.988435624652,-33100.005459786116,-42333.77931520693,-36826.06361223026,-46355.483991561414,-30975.31568709799,-48042.92893921482
13721.467700179543,7627.510443629079,-33169.13940538638,-42430.7635343985,-36658.15730788199,-46444.62274844918,-30850.660008270745,-48080.144593732904
13767.24407282401,7511.05785501693,-33337.336282412565,-42605.53182429455,-36739.42825072149,-46607.56696552837,-30948.873573407363,-48226.190892003884
13689.728223053005,7547.088867078885,-33285.92727016536,-42539.907102573765,-36923.74073549995,-46548.26778748844,-31098.227929857723,-48217.8313395776
13640.912013162615,7681.355796021914,-33104.85578833292,-42352.95711194958,-36855.36674921116,-46367.8445062452,-31007.725716558187,-48057.569331833045
13700.345301669277,7653.527874175057,-33146.765309186616,-42407.18244399816,-36672.03774118874,-46408.79290208732,-30850.72706350411,-48047.17577066133
13759.1974448201,7513.404788184737,-33324.77460202868,-42596.81464395698,-36709.92394804048,-46590.46788102006,-30915.234198002127,-48200.50873762474
13706.670845350129,7518.523337665002,-33306.49087506424,-42564.33755926342,-36898.460912521,-46570.17249705464,-31076.01029586915,-48229.36483971654
13628.015056611903,7641.815560080477,-33134.9188846253,-42380.91914426317,-36891.42011301757,-46392.99021875742,-31030.94917904725,-48081.26218095567
13666.70592626404,7647.001164794107,-33139.076309093994,-42387.781129810945,-36711.577977130175,-46395.493614136416,-30871.15655793626,-48041.297261869586
13750.323802271343,7521.764340611022,-33313.4646193343,-42573.45707100118,-36698.703372323915,-46575.156936068175,-30898.87272106084,-48189.10934795253
13729.983714817014,7514.67883761869,-33326.83096251857,-42575.04404485751,-36871.14708079661,-46584.41055827267,-31060.609943939442,-48237.72439214282
