Fp1,Fp2,C3,C4,P7,P8,O1,O2
14366.9413765599,5134.240404872943,-28103.340042035587,-34972.7016654851,-38348.97736894815,-38822.38731651155,-29132.95079862485,-38379.55455536301
14245.52670067867,5193.785452101881,-28022.69494804084,-34865.56975431082,-38431.1200298214,-38720.53041702872,-29110.80021986964,-38309.10185683988
14300.713157738825,5181.536696140372,-28015.1624101594,-34886.06630397634,-38200.62884099827,-38729.69463225539,-28987.038610820608,-38260.95619928315
14417.858650429089,5115.263773830387,-28098.1320855775,-35000.77545652097,-38092.40169434568,-38837.07241261869,-28990.994869589194,-38328.25730183808
14382.073507556142,5123.82449195677,-28119.03096664321,-34986.11271215829,-38304.318583526445,-38835.843066673646,-29104.832304100073,-38374.50306111611
14259.138913051953,5188.152812499144,-28025.44421260884,-34870.5318415799,-38432.952872866736,-38724.978414175326,-29100.652527886934,-38294.05913282146
14285.156343597931,5203.977847573501,-27987.781523201647,-34859.110100163234,-38231.78717276897,-38705.2865273102,-28976.30977348206,-38224.545207565454
14401.832449654634,5126.2384803579425,-28080.697724902362,-34978.02138066547,-38077.22485986052,-38810.675002416974,-28952.616924359434,-38268.3322749534
14392.46706872786,5106.256020814899,-28121.42260329993,-34999.4120001092,-38258.49750739307,-38843.08503187717,-29069.158919949405,-38344.082336912434
14272.415849258407,5176.731071082481,-28033.088509212557,-34891.207205201055,-38436.70796593523,-38749.25240865379,-29106.48633318977,-38314.75684818708
14263.810427643113,5204.335475484786,-27976.225671318254,-34853.34335009377,-38277.608248902354,-38705.77826568821,-28992.090105067506,-38245.22057118661
14387.192057036407,5138.464884574996,-28058.055407769134,-34960.49761301251,-38070.31817082383,-38796.30283073221,-28937.708310807742,-38270.969780799125
14407.152164834997,5099.326980033753,-28137.739376752303,-35018.12041021829,-38221.840646486366,-38861.860497219626,-29059.74883553372,-38358.230991152646
14291.481887278784,5161.084849963767,-28047.75125357524,-34918.52103692544,-38435.85859964593,-38775.225135710854,-29124.34537700956,-38345.4010898353
14254.534453694161,5207.7105888975375,-27975.800988173603,-34841.51927727691,-38322.289386068514,-38703.632498220504,-29017.25816932418,-38261.246771961065
14383.414612223462,5170.271416934898,-28025.01952946419,-34914.18479850111,-38077.895412194186,-38760.92001925946,-28920.184543154784,-38249.62386484431
14442.04323792973,5121.097579133222,-28095.494579731774,-34995.388686107246,-38148.37046246177,-38838.48057251937,-29004.763544173664,-38330.40306930579
14325.992980717778,5161.218960430499,-28054.88146005648,-34918.63279564772,-38397.16772999379,-38779.62842936855,-29105.122876777994,-38343.121211900856
14240.810482598601,5200.714492883026,-27990.709601725295,-34848.13539363568,-38366.90346800131,-38701.50908249725,-29038.067643412072,-38267.01352203054
14345.863681538545,5170.9643210130125,-28017.93402647186,-34907.76984784244,-38121.9507005156,-38753.32042614465,-28934.86963926192,-38246.71813806512
14435.494176804326,5120.628192499661,-28102.915358890936,-34996.08159018536,-38127.98567151853,-38846.21427610091,-28997.78979990361,-38328.45846753818
14356.369001432538,5158.693213307049,-28063.75510260524,-34929.24987426399,-38369.54097384703,-38792.212461496885,-29098.149132507937,-38342.80828747848
14253.729790893769,5210.79512963237,-27988.988517402235,-34833.98673939547,-38398.12885500537,-38698.7821696737,-29054.362065119993,-38266.16415574124
14327.825823763113,5186.878763065191,-28014.380099103466,-34877.03619921639,-38158.65226491121,-38733.58383579062,-28946.939581267787,-38243.90181826375
14440.992705940333,5125.098541390722,-28093.54997796416,-34976.34499983132,-38105.87979625223,-38824.28721479025,-28980.623660161935,-38308.07367659493
14385.672138413447,5145.595091056239,-28074.50629168824,-34936.022452833946,-38332.213560606666,-38787.96563005038,-29089.364896937,-38329.21842684966
14263.899834620934,5201.74267312797,-27996.25283435021,-34840.49109703196,-38426.82849488598,-38700.212681318844,-29081.00534451072,-38270.74626335457
14297.919189681912,5189.0468822773555,-28001.460790808298,-34856.00320768395,-38213.369335337804,-38710.67329772393,-28969.134863511907,-38228.00972795603
14421.434929541938,5126.9984396694235,-28103.630614713507,-34971.4052643067,-38098.90605198217,-38815.637089686046,-28973.046418791586,-38294.126188054826
14398.300874030696,5128.227785614466,-28107.251597315266,-34964.49857527001,-38304.07271433744,-38819.45923798791,-29090.549539393134,-38348.93266545924
14284.642253475458,5209.297562753864,-27996.11872388348,-34843.597989511254,-38435.09864033444,-38710.002745390266,-29093.94700455034,-38289.11939729684
14299.30499783814,5217.433597735596,-27968.179043314343,-34836.13250686318,-38242.76187929653,-38688.50036722426,-28977.673229893833,-38219.292547618454
14431.716731991379,5164.169390698599,-28059.687085114372,-34932.84850512129,-38073.71563598104,-38783.49528115932,-28946.760767312142,-38260.419757416224
14425.882926688544,5136.676745018572,-28114.85119043007,-34971.338209073336,-38260.26329520503,-38823.951938623424,-29072.221108939782,-38335.38750831932
14303.015387417721,5202.972019073012,-28030.182782433367,-34864.228649643504,-38449.26964631911,-38730.18637063341,-29113.19185652636,-38296.16019680026
14283.189390085863,5219.8028826478585,-27976.2033195738,-34825.44837301354,-38300.87641488033,-38691.60725970355,-29000.986099360718,-38222.533550564476
14392.71293791687,5149.841922502747,-28068.337210218575,-34936.648301678695,-38100.76124677197,-38793.03947604173,-28951.387578414393,-38260.9338475387
14418.28333357374,5107.842994671225,-28131.346777838087,-34991.4100755942,-38226.04277444396,-38849.63409300257,-29059.6594285559,-38346.138697402326
14305.764651985724,5166.695137822048,-28059.351808947544,-34889.62023134473,-38447.928541651796,-38755.15326918999,-29125.105336321038,-38314.84625516489
14261.664660175404,5211.51038545494,-27994.464694793787,-34820.4192305111,-38346.49632531361,-38679.26909676422,-29021.817925193063,-38221.90770171973
14367.880149827022,5152.390021370652,-28050.925201287893,-34914.631833390216,-38107.62323231974,-38760.405929136985,-28942.648046332368,-38233.97764372559
14427.067569144676,5095.929514876547,-28131.592647027093,-34998.1603024197,-38180.33345703286,-38839.28523531977,-29035.899524199907,-38322.40114479079
14318.773367258713,5144.812780000303,-28081.86001561404,-34917.62696714723,-38429.75657340963,-38773.16877522097,-29131.542638724168,-38332.50413328459
14241.123407020976,5196.624123647705,-28009.105087412012,-34837.40655629713,-38405.192006253244,-38693.52950972671,-29062.94513499083,-38256.84347830337
14337.347666901072,5157.061535961811,-28049.98642802077,-34910.5414641549,-38157.91465734418,-38747.754841775284,-28963.613982631447,-38243.96887349711
14424.228897598852,5099.684607945038,-28133.112565650055,-35004.597604822826,-38155.79124162093,-38834.367851539595,-29021.661462981876,-38321.44001977921
14345.863681538545,5134.419218828585,-28099.964928622834,-34944.09143258231,-38404.20852949721,-38793.553566164206,-29132.593170713568,-38350.83256373794
14244.789093111647,5196.355902714241,-28017.01760494919,-34845.67670174559,-38445.93923639527,-38705.57709998812,-29097.47858017428,-38287.21949901814
14322.282591138195,5185.917638053613,-28019.051613694624,-34877.25971666095,-38192.381047294264,-38724.889007197504,-28974.87926183692,-38247.88042877679
14421.501984775305,5111.933363906546,-28126.161173124456,-34989.778398248964,-38126.331642428835,-38826.343575280145,-29001.321375527546,-38317.01437437706
14360.548777645681,5120.047047143823,-28121.690824233392,-34968.90186892771,-38377.654657084306,-38818.54281646524,-29131.117955579517,-38374.100729715916
14253.327459493574,5197.406434703641,-28018.35870961651,-34841.921608677105,-38463.5300592816,-38702.134931342,-29102.887702332464,-38301.43520849171
14297.315692581618,5192.489050923473,-28003.941834442838,-34854.37153033871,-38226.445105844155,-38709.443951778885,-28974.141654269893,-38250.92026602272
14406.526315990248,5110.748721450415,-28120.08149863261,-34986.49269181403,-38114.01583123396,-38827.43881075845,-28985.697506153287,-38317.79668543299
14370.249434739286,5100.466919000974,-28151.508051336772,-34997.55680531941,-38329.75486871658,-38846.326034823185,-29115.359975738524,-38385.477767643664
14251.740485637247,5175.568780370806,-28049.56174487612,-34881.59595508527,-38469.18505062879,-38743.083327184126,-29128.346339267056,-38341.44483106671
14272.751125425235,5197.31702772582,-28004.478276309765,-34858.26073387393,-38268.19816448667,-38707.834626178104,-28992.715953912255,-38262.00673127255
14398.591446708615,5131.379381582664,-28100.07668734511,-34971.24880209551,-38095.66504903616,-38804.237700013844,-28953.376883670913,-38297.613060189855
14389.85191462659,5100.91395389008,-28159.174699684943,-35011.794866537435,-38276.356551212855,-38851.17636336999,-29079.597184610033,-38380.82860479696
14271.946462624845,5162.940044753557,-28066.504367173242,-34907.92631005363,-38473.633047775395,-38760.67415007045,-29130.805031157142,-38355.59348530692
14261.016459586199,5201.206231261043,-27999.49383729623,-34854.88562046118,-38322.289386068514,-38703.96777438733,-29012.474896010746,-38270.94742905467
14378.407821465473,5140.767114253893,-28080.541262691175,-34961.458738024085,-38111.28891841041,-38797.50982493279,-28955.41089241635,-38293.701504910176
14411.220182325862,5099.617552711672,-28156.85011826159,-35017.20398869562,-38239.40911762823,-38859.58061928518,-29063.50392860221,-38376.671180328274
14299.841439705067,5158.670861562594,-28084.51987320422,-34910.787333343906,-38455.14815511086,-38772.073539742654,-29126.468792732812,-38354.61000855089
14251.829892615067,5205.117786540722,-28006.311119355098,-34848.09069014677,-38367.238744168135,-38706.82879767761,-29034.111384643482,-38278.90465008076
14372.775181862735,5165.957530255024,-28058.59184963606,-34924.556007928375,-38119.31319466987,-38769.81601355267,-28941.843383531977,-38278.323504724925
14446.960621709899,5126.529053035862,-28140.108661664566,-35004.64230831174,-38176.46660524209,-38850.75168022534,-29025.93064617284,-38364.13185168885
14340.052227980164,5163.565893598306,-28096.90273963246,-34936.26832202296,-38428.08019257548,-38789.083217273146,-29125.5747229546,-38368.53514534654
14256.859035117512,5218.506481469451,-28002.3101570976,-34843.262713344426,-38390.61866886839,-38692.70249518186,-29045.04138768213,-38269.360455198344
14333.92784999941,5162.11303020871,-28053.87563155599,-34917.358746213766,-38147.20817175009,-38752.493411599804,-28947.76659581263,-38261.22442021661
14417.27750507325,5099.192869567021,-28144.57901055563,-35009.291471158445,-38140.34618620231,-38839.08406961967,-28999.533235971125,-38332.95116817369
14336.654762822958,5129.68064900406,-28116.080536375113,-34953.143889086714,-38386.86357579989,-38798.359191222095,-29108.587397168565,-38356.42049985177
14237.837700586046,5197.339379470275,-28027.768794032192,-34852.78455648239,-38428.41546874231,-38704.213643576346,-29070.790597294643,-38286.280725751014
14305.094099652064,5181.089661251266,-28035.41309063591,-34887.72033306603,-38181.629858211265,-38729.091135155104,-28950.962895269742,-38251.18848695618
14412.650693971002,5111.1063493617,-28130.09508014859,-35001.13308443226,-38114.507569611975,-38840.58163649817,-28986.07748580903,-38329.53135127203
14352.278632197218,5114.101483118711,-28139.43810933091,-34977.619049265275,-38357.806308007996,-38830.47864800438,-29114.376498982492,-38378.32520941797
14248.38772396895,5189.091585766267,-28018.87279973898,-34848.73889073597,-38435.09864033444,-38713.71313496985,-29085.453341657325,-38294.70733341066
14288.30793956613,5189.493917166462,-28011.83200023556,-34860.04887343036,-38220.074858674394,-38717.17765536042,-28966.765578599643,-38246.60637934284
14412.807156182189,5122.058704144801,-28104.99407112528,-34969.17008986117,-38094.74862751349,-38819.2133687989,-28963.099892508973,-38304.050362592985
14377.670213898447,5112.670971473572,-28153.743225782306,-34977.887270198735,-38313.92983364223,-38836.73713645186,-29098.305594719124,-38374.100729715916
14266.984375355767,5191.840850334269,-28032.50736385672,-34857.38901584018,-38460.95960866924,-38728.71115549936,-29114.845885616054,-38319.31660405596
14281.177733084885,5212.180937788598,-28006.35582284401,-34845.22966685649,-38277.76471111354,-38710.76270470175,-29001.70135518329,-38263.01255977304
14403.352368277594,5144.6116143002055,-28103.65296645796,-34957.99421763352,-38108.45024686459,-38813.178397795964,-28971.705314124265,-38310.55472022948
14417.679836473446,5132.787541483348,-28133.60430402807,-34982.089398156335,-38255.70353933615,-38837.92177890799,-29074.456283385312,-38369.42921512476
14295.59460825856,5204.31312374033,-28058.860070569524,-34875.22570791551,-38452.35418705394,-38744.98322546283,-29120.992615341263,-38336.750964731094
14272.34879402504,5229.972926375023,-28013.30721536961,-34833.13737310617,-38313.549853986486,-38700.212681318844,-29007.333994786026,-38263.370187684326
14399.060833342175,5170.584341357272,-28070.37121896401,-34934.92721735564,-38092.558156556865,-38783.696446859416,-28933.170906683317,-38280.87160359283
14455.320174136183,5152.725297537482,-28110.649062472472,-34976.143834131224,-38190.011762382004,-38831.59623522714,-29018.241646080216,-38349.87143872636
14334.64310582198,5204.290771995875,-28060.357637448033,-34890.9836877565,-38425.196817540746,-38755.1979726789,-29096.85273132953,-38344.32820610145
14285.312805809119,5254.8504179537795,-27979.980764386746,-34816.977061864985,-38333.956996674184,-38679.40320723096,-28997.521578970147,-38263.45959466214
14389.404879737483,5191.103242767244,-28039.190535448855,-34913.89422582319,-38095.843862991795,-38757.52255410225,-28909.612168027423,-38271.55092615497
14432.09671164712,5118.907108176602,-28163.890917765013,-35016.35462240632,-38178.768834920986,-38856.29491285025,-29008.78685817562,-38373.743101804626
14341.415684391939,5174.719414081504,-28092.767666908225,-34928.78048763043,-38418.2677767596,-38788.166795750476,-29099.244367986248,-38383.64492459833
14272.617014958503,5242.624013736727,-27988.407372046397,-34831.23747482747,-38379.44279664073,-38689.863823636035,-29013.36896578896,-38294.14853979928
14357.777161333224,5200.446271949562,-28026.07006145359,-34898.49387389349,-38134.46767741057,-38739.97643470483,-28905.342984836458,-38274.881336078804
14447.072380432175,5130.865291460192,-28123.90364693447,-34993.82406399537,-38121.503665626486,-38831.32801429368,-28959.076578507018,-38351.61487479387
14358.626527622526,5152.747649281937,-28108.32448104912,-34955.69198795462,-38376.44766288372,-38801.42138021247,-29079.485425887757,-38387.243555455636
14269.219549801297,5232.543376987383,-28002.01958441968,-34837.22774234149,-38413.395096468346,-38690.10969282505,-29029.529277030146,-38305.12324632684
14340.454559380361,5222.932126871601,-28014.424802592373,-34869.52601307941,-38168.93406736065,-38706.27000406623,-28905.991185425664,-38260.95619928315
14443.272583874774,5146.0197742008895,-28116.75108870877,-34984.72690400206,-38100.42597060513,-38813.51367396279,-28933.416775872323,-38331.90063618429
14384.688661657414,5147.696155035038,-28123.724832978827,-34971.62878175125,-38342.271845611554,-38808.238662271346,-29061.492271601233,-38386.55065137752
14269.621881201492,5219.959344859046,-28030.540410344653,-34854.72915825,-38447.10152710695,-38702.313745297644,-29053.445643597322,-38324.01047039157
14300.40023331645,5213.566745944828,-28014.111878170002,-34865.972085711015,-38233.776478025495,-38701.2855650527,-28934.936694495285,-38270.85802207685
14418.842127185122,5143.9634137110015,-28104.949367636367,-34974.467453297075,-38090.188871644605,-38798.87328134457,-28922.71029027823,-38321.21650233466
14412.002493381799,5145.7292015229705,-28123.23309460081,-34968.90186892771,-38282.436225704696,-38800.0579238007,-29036.212448622282,-38373.69839831572
14298.723852482302,5221.099283826266,-28025.31010214211,-34853.85744021624,-38440.95479738174,-38693.03777134869,-29060.106463445005,-38324.88218842533
14293.560599513126,5226.0837228397995,-27990.35197381401,-34845.45318430104,-38262.83374581739,-38678.55384094165,-28953.086310992996,-38275.283667479
14406.66042645698,5150.4230678585855,-28093.773495408714,-34970.37708406175,-38093.318115868344,-38782.66826661447,-28925.928941479797,-38310.264147551556
14419.71384521888,5126.082018146756,-28156.80541477268,-35018.27687242948,-38260.39740567176,-38824.01899385679,-29040.615742279977,-38371.865555270386
14292.867695435012,5183.660111863627,-28067.1749195069,-34905.66878386364,-38455.03639638858,-38723.88317869701,-29080.60301311052,-38339.03084266554
14266.693802677848,5216.763045401936,-27992.4083343039,-34848.11304189122,-38307.80545566147,-38658.70549186534,-28958.942468040284,-38248.03689098798
14382.31937674515,5153.038221959856,-28058.9718292918,-34950.908714641184,-38080.488214551,-38743.03862369521,-28886.18753983826,-38260.062129504935
14415.556420750192,5112.067474373278,-28143.059091932668,-35023.37307016529,-38194.12448336178,-38817.35817400911,-28996.56045395857,-38351.12313641586
14300.10966063853,5167.008062244423,-28097.64034719948,-34936.31302551187,-38435.545675223555,-38749.18535342042,-29086.347411435538,-38353.00068295011
14244.856148345012,5214.46081572304,-28012.79312524714,-34861.32292286431,-38355.25820914009,-38676.34101824058,-28995.88990162491,-38271.394463943776
14352.569204875137,5171.590169857761,-28057.22839322429,-34943.353825015285,-38113.680555067134,-38739.216475393354,-28903.465438302213,-38269.919248809725
14442.736142007845,5149.037259702356,-28117.98043465381,-35006.54220659044,-38146.73878511653,-38806.562281437196,-28970.006581545662,-38338.33793858742
14352.12216998603,5200.155699271643,-28078.395495223464,-34925.181856773124,-38384.89662228783,-38740.848152738596,-29065.60499258101,-38344.43996482372
14264.883311376967,5252.682298741615,-28002.041936164136,-34838.70295747554,-38382.03559899755,-38656.447965675354,-29008.540988986613,-38270.2321732321
14350.624603107526,5221.2110425485425,-28034.295503413145,-34900.371420427735,-38139.765040846476,-38707.05231512217,-28906.90760694833,-38254.2283242021
14455.946022980932,5168.7962018008475,-28112.995995640278,-34995.388686107246,-38111.713601555064,-38799.990868567336,-28954.561526127047,-38332.50413328459
14378.899559843489,5185.068271764311,-28092.387687252485,-34954.73086294304,-38362.72369178816,-38773.839327554626,-29074.702152574322,-38383.19788970923
14277.467343505305,5254.068106897844,-28002.466619308787,-34842.43569879958,-38413.864483101905,-38671.691855393874,-29038.581733534545,-38309.705353940175
14339.35932390205,5235.672621211126,-28005.327642599066,-34870.39773111317,-38171.32570401737,-38678.263268263734,-28908.896912204855,-38239.00678622804
14445.798330998223,5163.722355809493,-28109.017385127234,-34988.0573139259,-38091.88760422321,-38782.48945265883,-28933.26031366114,-38302.86572013685
14402.57005722166,5176.909885038124,-28108.592701982583,-34969.72888347255,-38312.432266763724,-38780.81307182468,-29055.27848664266,-38371.23970642564
14293.44884079085,5254.0234034089335,-28009.552122301116,-34851.44345181507,-38420.68176516077,-38674.08349205059,-29044.639056281932,-38303.80449340397
14325.8812219955,5253.777534219925,-27999.806761718606,-34859.04304492987,-38207.89315794625,-38664.18166925689,-28919.02225244311,-38225.03694594347
14443.518453063782,5182.319007196308,-28091.583024452095,-34981.5082528005,-38070.29581907938,-38779.62842936855,-28914.23897912967,-38294.05913282146
14424.81004295469,5174.719414081504,-28126.943484180392,-34990.471302327074,-38273.24965873357,-38794.671153386975,-29037.397091078412,-38361.87432549886
14306.278742108196,5242.266385825442,-28036.77654704768,-34878.71258005054,-38435.43391650128,-38692.79190215968,-29063.74979779122,-38307.42547600573
14308.692730509369,5259.097249400288,-27995.403468060907,-34864.653332788155,-38264.17485048471,-38674.86580310653,-28955.053264505063,-38256.84347830337
14427.626362756058,5194.053673035344,-28089.347850006565,-34968.43248229414,-38083.34923784128,-38772.09589148711,-28912.696708762254,-38287.733589140604
14439.115159406087,5167.2092279445205,-28136.75589999627,-35003.63647981125,-38232.50242859154,-38807.0093163263,-29018.08518386903,-38344.797592735005
14317.812242247135,5228.050676351867,-28061.922259559902,-34901.44430416159,-38438.94314038076,-38720.75393447327,-29079.19485320984,-38325.61979599235
14285.983358142777,5256.7279644880255,-28010.468543823787,-34855.51146930593,-38315.226234820635,-38669.14375652597,-28979.170796772338,-38249.46740263312
14402.771222921756,5200.4909754384735,-28078.30608824564,-34960.16233684568,-38101.029467705426,-38759.847135525604,-28917.368223353413,-38277.07180703543
14446.826511243167,5157.732088295471,-28157.744188039804,-35017.89689277374,-38203.311050332915,-38826.343575280145,-29017.7499077022,-38360.242648153624
14332.02795172071,5204.089606295777,-28095.539283220685,-34931.06036556487,-38441.58064622649,-38761.41175763748,-29108.408583212924,-38365.003569722605
14280.194256328852,5259.790153478402,-28007.987500189247,-34847.91187619113,-38369.25040116911,-38680.721960153816,-29024.008396149686,-38282.32446698242
14394.076394328642,5223.066237338333,-28047.46068089732,-34913.73776361201,-38111.73595329952,-38733.31561485715,-28919.536342565578,-38266.67824586371
14472.48631387786,5172.148963469143,-28123.456612045364,-34994.5616715624,-38148.5045729285,-38815.65944143051,-28993.431209734823,-38345.62460727985
14370.674117883937,5209.431673220596,-28093.728791919806,-34923.505475938975,-38403.85090158593,-38761.2999989152,-29098.886740074962,-38355.36996786237
14287.883256421479,5271.837743739813,-28004.053593165114,-34824.95663463553,-38395.7148666042,-38667.06504429162,-29031.630341008946,-38272.154423255255
14362.627489880026,5231.001106619967,-28040.822212794094,-34887.13918771019,-38147.67755838365,-38718.07172513864,-28923.403194356346,-38248.57333285491
14469.379421398571,5173.378309414185,-28117.13106836451,-34988.57140404837,-38120.63194759273,-38808.03749657125,-28966.765578599643,-38313.66161270876
14397.60796995258,5196.892344581169,-28102.04364085718,-34931.73091789853,-38360.82379350946,-38772.58762986513,-29076.333829919557,-38345.93753170223
14304.31178859613,5275.794002508403,-27989.34614531352,-34807.03053558237,-38413.55155867953,-38662.41588144492,-29034.73723348823,-38265.515955152034
14358.246547966784,5259.052545911378,-28010.893226968437,-34840.111117376226,-38175.818404652884,-38683.717093910825,-28914.931883207788,-38226.10982967733
14461.109275950108,5180.2402949619645,-28131.36912958254,-34971.338209073336,-38104.62809856273,-38799.54383367823,-28945.039682989085,-38305.302060282476
14431.67202850247,5198.859298093235,-28083.826969126105,-34933.58611268832,-38301.36815325834,-38774.21930721036,-29043.096785914517,-38337.55562753149
14288.978491899788,5244.188635848598,-28009.842694979037,-34834.433774284575,-38432.528189722085,-38679.96200084234,-29047.74594876122,-38287.465368207144
14316.426434090905,5253.174037119632,-28003.584206531552,-34840.580504009784,-38229.97668146809,-38672.630628661,-28930.466345604225,-38234.71525129262
14438.66812451698,5181.6484548626495,-28096.254539043253,-34959.514136256475,-38084.95856344206,-38779.986057279835,-28916.652967530845,-38287.01833331804
14422.440758042427,5168.259759933921,-28125.088289390602,-34971.740540473525,-38283.44205420519,-38803.34363023563,-29038.782899234644,-38356.42049985177
14299.729680982791,5233.79507467688,-28036.374215647487,-34859.60183854125,-38450.83426843098,-38699.162149329444,-29063.012190224195,-38309.88416789582
14303.909457195934,5251.408249307662,-27986.149845856413,-34831.997434138946,-38268.75695809805,-38659.42074768791,-28937.328331152003,-38233.016518714016
14407.241571812818,5163.476486620484,-28112.2360363288,-34958.06127286688,-38097.83316824832,-38769.7489583193,-28906.415868570315,-38277.72000762463
14426.799348211212,5140.655355531616,-28136.308865107163,-34983.2069853791,-38237.39746062725,-38812.46314197339,-29014.285387311626,-38348.17270614776
14318.907477725445,5214.527870956406,-28044.130270973477,-34873.169347425624,-38431.61176819942,-38715.90360592647,-29059.547669833624,-38315.33799354291
14282.96587264131,5242.668717225638,-27980.96424114278,-34818.7652014214,-38309.81711266245,-38655.91152380843,-28952.706331337256,-38235.810486770926
14399.060833342175,5183.302483952342,-28050.925201287893,-34915.123571768236,-38087.953697199075,-38736.26604512525,-28880.487845002157,-38249.579161355396
14454.224938657873,5146.533864323362,-28137.649969774484,-34983.832834223846,-38190.727018204576,-38803.43303721345,-28977.15913977136,-38324.27869132503
14340.432207635906,5204.402530718152,-28046.20898320782,-34884.568737097834,-38410.087038288955,-38724.978414175326,-29050.584620307043,-38310.71118244066
14253.796846127136,5222.775664660414,-27990.3072703251,-34821.17918982258,-38358.432156852745,-38664.80751810164,-28979.729590383722,-38248.34981541036
14346.198957705374,5159.49787610744,-28036.485974369763,-34893.800007557875,-38114.21699693406,-38720.642175750996,-28882.63361246987,-38235.89989374875
14424.005380154298,5116.068436630779,-28111.006690383758,-34978.89309869923,-38136.14405824472,-38796.50399643231,-28946.313732423037,-38304.184473059715
14331.625620320514,5149.350184124731,-28074.84156785507,-34905.62408037473,-38379.28633442955,-38744.49148708481,-29045.734291760244,-38323.608138991374
14218.01170325419,5180.575571128795,-27994.06236339359,-34817.96053862102,-38387.77999732256,-38658.72784360979,-28991.77718064513,-38258.67632134871
14273.935767881367,5134.73214325096,-28008.68040426736,-34863.64750428766,-38134.89236055522,-38696.70345743936,-28881.04663861354,-38231.85422800234
14332.229117420808,5031.176511189522,-28133.716062750347,-34978.62487776576,-38116.87685452424,-38804.61767966958,-28939.38469164189,-38314.39922027579
14254.892081605445,5051.091915499201,-28089.928995362403,-34927.32762424083,-38340.796630477504,-38764.80922279468,-29042.94032370333,-38332.25826409558
14141.188757561298,5117.342486064731,-27988.899110424416,-34804.102457058725,-38392.69738110273,-38642.545180624154,-29001.187265060817,-38243.29832116346
14162.020583393643,5059.719688858949,-27996.09637213902,-34849.0741669028,-38172.465642984585,-38674.619933917515,-28900.6714702453,-38223.13704766477
14252.679258904369,4968.301054036743,-28113.800658440672,-34971.06998813987,-38095.32977286932,-38793.03947604173,-28931.360415382438,-38310.53236848502
14179.611406279972,4946.97748982638,-28144.400196599985,-34971.44996779561,-38334.381679818835,-38807.83633087115,-29070.589431594544,-38396.63128812686
14050.440675072752,5012.1328249136,-28041.760986061217,-34857.12079490671,-38448.956721896735,-38692.523681226216,-29064.3085914026,-38319.070734866946
14085.488210378673,5020.022990706324,-28003.897130953927,-34842.63686449968,-38234.04469895896,-38673.41293971693,-28936.590723584977,-38242.35954789633
14190.027319196144,4935.779265854271,-28090.107809318044,-34952.07100535286,-38080.890545951195,-38770.46421414187,-28909.34394709396,-38291.98042058712
14164.166350861355,4909.49361437483,-28134.006635428268,-34975.808557964396,-38267.90759180875,-38788.97145855087,-29021.884980426432,-38342.94239794522
14045.836215714959,4977.241751818866,-28044.800823307138,-34866.64263804467,-38447.30269280705,-38687.27102127922,-29059.502966344713,-38288.784121130004
14035.420302798784,4996.486603794886,-28001.572549530574,-34836.668948730105,-38277.76471111354,-38652.78227958468,-28943.385653899393,-38223.94171046516
14142.283993039608,4922.278812203266,-28088.632594183993,-34945.54429597191,-38082.142243640694,-38747.754841775284,-28895.977603909687,-38262.74433883958
14158.690173469804,4891.9698467218695,-28150.792795514204,-34993.08645642835,-38231.87657974679,-38798.58270866665,-29010.50794249868,-38348.19505789221
14039.041285400544,4955.001766085836,-28082.26234701423,-34904.081810007316,-38448.7779079411,-38720.418658306444,-29078.52430087618,-38335.92395018625
14009.425223997263,5000.3311038411985,-28019.900979983926,-34850.37056808121,-38332.68294724023,-38664.09226227907,-28981.473026451236,-38261.55969638344
14125.631943420405,4938.908510078015,-28092.14181806348,-34943.711452926575,-38112.74178180001,-38753.72275754485,-28913.367261095915,-38284.537289683496
14179.343185346508,4898.585963080641,-28162.773330542248,-35018.18746545166,-38200.56178576491,-38826.07535434668,-29009.65857620938,-38372.67021807077
14080.056736476034,4961.372013255598,-28105.0834781031,-34928.10993529677,-38436.68561419077,-38748.246580153296,-29091.108333004515,-38364.3553691334
14027.261916072597,5023.778083774815,-28017.55404681612,-34839.86524818722,-38374.16778494928,-38667.93676232538,-29005.79172441861,-38281.49745243758
14137.768940659636,4986.629484490095,-28059.530622903185,-34911.23436823301,-38126.08577323983,-38726.87831245403,-28907.86873195991,-38270.031007532
14225.946572535822,4932.717076863894,-28152.022141459245,-35003.770590277985,-38154.69600614262,-38816.620566442085,-28978.947279327786,-38343.948226445704
14140.093522082989,4974.313673295221,-28123.858943445557,-34945.85722039428,-38410.69053538925,-38772.364112420575,-29093.5670248946,-38362.09784294341
14069.663175304315,5053.014165522357,-28023.812535263605,-34840.736966220975,-38412.612785412406,-38674.977561828804,-29035.74306198872,-38282.72679838262
14165.865083439958,5033.411685635053,-28043.437366895363,-34880.99245798498,-38165.02251208097,-38711.410905290955,-28921.5256478221,-38255.94940852516
14272.326442280584,4970.60328371564,-28138.476984319328,-34986.40328483621,-38136.54638964491,-38808.238662271346,-28961.334104697,-38329.57605476094
14219.91160153289,4998.766481729327,-28128.217533614345,-34955.379063532244,-38374.54776460502,-38790.960763807394,-29082.100579989026,-38370.233877925144
14107.325864711507,5060.52435165934,-28041.246895938744,-34853.6786262606,-38439.21136131422,-38690.73554166979,-29061.671085556878,-38300.07175207994
14172.592958521005,5058.400935936086,-28035.54720110264,-34880.83599577379,-38202.662849743705,-38708.84045467859,-28943.743281810675,-38255.9270567807
14296.131050125487,4992.507993281841,-28131.1903156269,-34990.471302327074,-38108.04791546439,-38811.59142393964,-28954.047436004574,-38320.41183953427
14260.703535163824,4997.179507873,-28138.09700466359,-34982.73759874554,-38326.35740355938,-38816.24058678634,-29077.540824120144,-38379.465148385185
14163.451095038785,5086.541782205318,-28036.620084836493,-34863.71455952103,-38443.74876543865,-38714.51779777024,-29077.65258284242,-38321.77529594604
14192.955397719788,5095.3036660317985,-28014.603616548018,-34855.556172794844,-38236.83866701587,-38695.60822196105,-28951.521688881123,-38253.848344546364
14325.635352806492,5036.47387462543,-28105.016422869736,-34970.66765673967,-38088.31132511036,-38797.86745284408,-28934.82493577301,-38302.41868524774
14318.393387602973,5019.978287217413,-28137.47115581884,-34988.21377613709,-38273.92021106723,-38826.52238923578,-29053.80327150861,-38374.39130239383
14198.409223366883,5087.547610705807,-28060.581154892585,-34887.854443532764,-38455.37167255541,-38735.99782419179,-29092.76236209421,-38337.13094438684
14215.463604386283,5125.67968674656,-27998.800933218117,-34844.38030056719,-38281.98919081559,-38690.04263759168,-28966.363247199446,-38254.273027691015
14331.73737904279,5055.875188812636,-28075.51212018873,-34948.78529891793,-38081.82931921832,-38785.88691781604,-28915.758897752632,-38286.25837400656
14362.135751502008,5030.170682689033,-28136.08534766261,-34993.511139573,-38220.1195621633,-38834.68077596197,-29023.047271138108,-38362.12019468787
14247.806578613112,5095.169555565066,-28069.74537011926,-34892.61536510174,-38426.381459996875,-38743.32919637313,-29079.530129376668,-38331.43124955073
14209.205115938797,5135.290936862342,-28004.992366432234,-34837.9206464196,-38321.305909312476,-38690.44496899188,-28984.691677652798,-38257.692844592675
14330.508033097749,5089.29104677332,-28060.759968848226,-34924.399545717184,-38093.78750250191,-38766.46325188437,-28908.002842426642,-38264.71129235164
14384.37573723504,5042.978232261924,-28143.28260937722,-34999.92609023167,-38177.51713723149,-38841.83333418767,-29003.623605206445,-38345.088165412926
14276.014480115711,5088.218163039465,-28097.64034719948,-34923.1925515166,-38418.78186688207,-38777.952048534404,-29095.62338538449,-38348.77620324805
14213.094319474021,5143.561082310806,-28016.12353517098,-34841.8769051882,-38370.88207851435,-38695.27294579422,-29014.12892510044,-38265.13597549629
14316.314675368629,5107.1053871042,-28058.189518235868,-34904.8864728077,-38125.92931102864,-38747.28545514172,-28910.95327269474,-38248.84155378837
14403.240609555318,5055.04817426779,-28137.180583140922,-34989.04079068194,-38132.72424134305,-38827.796438669735,-28968.888994322897,-38317.41670577726
14323.288419638684,5095.05779684279,-28094.265233786733,-34926.00887131797,-38377.095863472925,-38774.44282465492,-29070.410617638903,-38331.20773210618
14218.838717799035,5152.568835326295,-28027.053538209624,-34833.405594039636,-38396.07249451548,-38690.221451547324,-29025.416556050368,-38263.16902198423
14298.276817593196,5125.456169302007,-28053.36154143352,-34877.97497248351,-38152.55023867491,-38725.2913385977,-28913.881351218388,-38234.89406524826
14402.27948454374,5061.910159815569,-28136.66649301845,-34975.383874819745,-38105.142188685204,-38815.95001410842,-28944.033854488596,-38296.3390107559
14335.067788966631,5079.903314102092,-28124.775364968227,-34945.7007581831,-38350.944322460215,-38796.72751387686,-29064.5097571027,-38335.94630193071
14222.124424233965,5146.086829434255,-28030.78627953366,-34844.40265231164,-38415.25029125813,-38697.70928593985,-29040.32516960206,-38269.986304043094
14279.501352250738,5142.44349508804,-28035.860125525014,-34870.46478634653,-38189.83294842636,-38705.599451732574,-28922.620883300413,-38223.60643429833
14401.631283954535,5074.471840199451,-28136.822955229636,-34977.261421353985,-38097.07320893684,-38812.2619762733,-28938.669435819324,-38287.0853885514
14348.07650423962,5069.2415319969095,-28153.00561821528,-34960.22939207905,-38313.259281308565,-38810.92087160598,-29058.6088965665,-38339.88020895484
14227.62295336997,5126.618460013683,-28044.26438144021,-34848.87300120271,-38443.54759973855,-38712.19321634689,-29065.068550714084,-38290.48285370861
14257.574290940081,5150.35601262522,-28008.792162989637,-34841.80984995483,-38238.15741993874,-38690.489672480784,-28937.7306625522,-38222.35473660883
14370.182379505919,5067.386337207119,-28107.586873482094,-34959.4023775342,-38083.908031452665,-38795.0064295538,-28917.97172045371,-38270.14276625428
14356.279594454718,5040.608947349661,-28144.243734388798,-34968.879517183246,-38264.823051073916,-38817.49228447584,-29033.597294521012,-38335.78983971952
14209.965075250278,5082.429061225541,-28072.919317831915,-34865.12271942171,-38446.94506489576,-38725.15722813096,-29075.28329793016,-38307.738400428105
14179.678461513337,5088.173459550555,-28012.97193920278,-34831.639806227664,-38286.4371879622,-38689.41678874693,-28961.848194819475,-38240.86198101783
14274.472209748294,5005.0249701768125,-28089.37020175102,-34937.2965022679,-38091.664086778655,-38790.469025429375,-28913.791944240565,-38281.22923150411
14275.075706848587,4946.9104345930145,-28155.86664150556,-34984.59279353533,-38225.19340815466,-38833.00439512782,-29013.570131489058,-38341.713052000174
14125.497832953673,4968.256350547833,-28075.400361466454,-34885.127530709215,-38426.62732918589,-38735.37197534704,-29068.622478082478,-38302.32927826992
14050.954765195223,4985.377786800598,-28005.662918765895,-34821.60387296723,-38326.625624492845,-38668.763776870226,-28970.677133879322,-38218.2196638846
14148.60953672046,4916.154434222512,-28078.015515567724,-34912.35195545578,-38100.35891537177,-38752.582818577626,-28900.403249311836,-38244.08063221939
14169.642528252904,4832.961241359859,-28190.847121578114,-35020.824971297385,-38200.18180610917,-38851.37752907009,-29013.704241955787,-38355.36996786237
14050.217157628198,4870.847448211604,-28116.684033475405,-34930.94860684259,-38436.97618686869,-38783.78585383724,-29103.33473722157,-38363.304837144
13963.045354252501,4904.486823616841,-28045.426672151887,-34846.23549535698,-38388.45054965622,-38693.59656496007,-29018.196942591305,-38265.76182434104
14042.885785446857,4849.881511912527,-28088.74435290627,-34924.399545717184,-38141.37436644726,-38752.2475424108,-28915.133048907883,-38251.18848695618
14127.934173099302,4795.767938586228,-28189.617775633073,-35010.31965140339,-38155.411261965186,-38840.045194631246,-28979.126093283427,-38321.663537223765
14050.172454139287,4833.81060764916,-28130.38565282651,-34956.988389133025,-38400.43108468426,-38794.62644989806,-29089.47665565928,-38346.22810438015
13967.33688918792,4901.603448582107,-28030.585113833564,-34852.44928031555,-38410.84699760044,-38693.79773066017,-29036.36891083347,-38273.94256281168
14035.35324756542,4868.232294110334,-28069.70066663035,-34899.946737283084,-38179.14881457673,-38728.97937643282,-28925.928941479797,-38239.163248439225
14143.17806281782,4810.207165504356,-28165.90257476599,-35005.1116949453,-38120.98957550402,-38827.81879041419,-28957.24373546168,-38306.6431649498
14094.07128024951,4842.81836066465,-28149.943429224903,-34965.63851423723,-38362.56722957698,-38806.94226109293,-29075.752684563722,-38349.87143872636
13988.459287698184,4912.309934176199,-28052.199250721846,-34857.41136758463,-38444.66518696132,-38711.56736750214,-29058.31832388858,-38290.30403975297
14050.753599495125,4913.3381144211435,-28056.13315774598,-34894.738780825,-38219.381954596276,-38725.581911275614,-28942.580991099,-38243.52183860801
14185.221694138252,4866.690023742917,-28145.160155911468,-34992.84058723934,-38108.785523031416,-38822.87905488957,-28941.284589920593,-38286.995981573586
14170.46954279775,4884.884343729537,-28154.279667649233,-34982.26821211198,-38317.57316798844,-38828.31052879221,-29058.65360005541,-38344.61877877936
14062.890596734358,4963.115449323112,-28063.442178182864,-34873.459920103545,-38452.84592543196,-38721.58094901812,-29068.04133272664,-38292.31569675395
14091.299663937052,4983.969626899913,-28036.2177534363,-34866.01678919992,-38261.98437952809,-38705.107713354555,-28951.991075514685,-38233.351794880844
14225.633648113448,4922.54703313673,-28121.75787946676,-34975.36152307529,-38093.45222633508,-38800.70612438991,-28918.86579023192,-38271.01448428804
14223.778453323657,4901.223468926367,-28183.82867381915,-35018.03100324047,-38282.033894304506,-38846.951883667934,-29046.293085371624,-38351.34665386041
14126.570716687527,4994.318484582721,-28062.972791549302,-34897.711562837554,-38456.89159117837,-38747.50897258627,-29080.111274732506,-38316.00854587657
14118.837013105991,5029.634240822106,-28011.653186279917,-34854.39388208317,-38299.982345102115,-38701.553785986165,-28965.379770443415,-38239.00678622804
14242.77743611067,4968.79279241476,-28099.27202454472,-34960.11763335677,-38097.252022892484,-38787.13861550553,-28907.354641837435,-38253.31190267944
14283.099983108043,4942.931824079969,-28164.203842187388,-35016.17580845068,-38225.3722221103,-38847.35421506813,-29017.7499077022,-38339.43317406573
14179.454944068784,5011.551679557762,-28089.347850006565,-34918.18576075861,-38443.36878578291,-38759.73537680333,-29083.754609078722,-38326.15623785928
14140.004115105166,5058.5573981472735,-28019.20807590581,-34857.56782979582,-38345.73636600213,-38700.45855050785,-28991.196035289293,-38252.037853245485
14257.753104895724,5019.128920928111,-28088.40907673944,-34949.925237885145,-38120.36372665927,-38783.58468813714,-28921.637406544378,-38270.56744939893
14322.014370204732,4976.034757618279,-28168.540080611718,-35028.33515743437,-38198.550128763934,-38860.18411638548,-29014.17362858935,-38358.74508127512
14233.09913076152,5043.872302040137,-28104.077649602612,-34937.207095290076,-38422.35814599492,-38788.0550370282,-29097.635042385467,-38354.4535463397
14176.169237633854,5111.9110121620915,-28007.87574146697,-34837.80888769733,-38380.11334897439,-38696.25642255026,-29014.151276844896,-38261.96202778364
14274.293395792653,5074.8741715996475,-28053.808576322626,-34909.4909321655,-38140.5026484135,-38755.15326918999,-28913.993109940664,-38247.76867005452
14360.146446245486,5019.866528495137,-28145.271914633744,-35002.295375143935,-38147.92342757266,-38841.16278185401,-28972.4876251802,-38316.32147029894
14281.892988907455,5057.7974388357925,-28113.375975296018,-34940.93983661412,-38390.61866886839,-38787.742112605825,-29074.210414196303,-38324.949243658695
14184.61819703796,5119.398846554619,-28031.970921989792,-34849.87882970319,-38422.469904717196,-38701.2855650527,-29032.435003809336,-38259.19041147118
14256.501407206228,5095.326017776253,-28048.51121288672,-34892.77182731293,-38183.999143123525,-38737.830667237125,-28923.53730482308,-38234.625844314796
14379.503056943782,5046.889787541603,-28123.344853323088,-34989.73369476005,-38118.10620046928,-38832.15502883852,-28948.459499890745,-38305.14559807129
14334.888975010988,5075.254151255388,-28111.364318295044,-34951.66867395266,-38342.94239794522,-38805.91408084799,-29054.27265814217,-38338.06971765396
14222.459700400794,5140.54359680934,-28032.08268071207,-34849.543553536365,-38436.14917232384,-38705.33123079911,-29033.32907358755,-38265.42654817421
14268.169017811897,5134.754494995415,-28017.598750305027,-34865.39094035517,-38212.20704462613,-38711.1873878464,-28908.427525571293,-38211.87176845929
14392.489420472315,5073.018976809857,-28102.580082724107,-34975.83090970885,-38090.52414781143,-38808.909214605,-28900.738525478668,-38266.87941156381
14369.55653066117,5076.014110566868,-28123.32250157863,-34973.81925270787,-38296.60723168936,-38819.34747926563,-29017.615797235467,-38329.1960751052
14247.739523379747,5140.521245064884,-28031.68034931187,-34862.03817868688,-38442.96645438272,-38723.503199041275,-29035.18426837734,-38288.22532751862
14262.9163578649,5150.490123091951,-27997.97391867327,-34856.47259431751,-38257.89401029277,-38708.92986165641,-28918.39640359836,-38235.251693159546
14386.208580280374,5085.647712427105,-28097.997975110768,-34967.09137762682,-38096.08973218081,-38807.8586826156,-28888.221548583693,-38281.810376859954
14400.737214176324,5075.276502999843,-28128.776327225725,-34983.94459294613,-38260.084481249396,-38826.70120319143,-28993.297099268093,-38337.55562753149
14282.943520896855,5140.990631698445,-28046.588962863563,-34875.76214978244,-38447.9732451407,-38726.45362930938,-29036.503021300203,-38302.709257925664
14276.215645815808,5179.033300761378,-27980.29368880912,-34827.236512569965,-38287.57712692942,-38674.418768217416,-28918.731679765187,-38233.485905347574
14388.689623914914,5109.474672016463,-28060.961134548324,-34936.31302551187,-38082.54457504089,-38763.91515301647,-28859.924240103275,-38254.541248624475
14412.628342226548,5069.2415319969095,-28138.253466874776,-34998.54028207544,-38213.928128949185,-38826.14240958005,-28971.504148424166,-38340.30489209949
14312.514878811227,5142.041163687845,-28052.40041642194,-34893.04004824639,-38423.00634658412,-38731.259254367265,-29030.624512508457,-38318.78016218903
14261.508197964216,5186.5211351539065,-27982.48415976574,-34825.984814880474,-38336.72861298664,-38663.734634367785,-28940.21170618674,-38245.08646071988
14372.238739995808,5138.442532830541,-28044.532602373674,-34913.11191476726,-38104.42693286263,-38736.064879425154,-28858.04669356903,-38253.46836489062
14439.182214639452,5091.481517729941,-28130.162135381954,-34995.47809308506,-38173.33736101835,-38814.00541234081,-28942.24571493217,-38339.835505465926
14342.46621638134,5141.594128798739,-28064.962096805826,-34918.92336832564,-38416.591395925454,-38748.53715283122,-29036.391262577923,-38345.44579332421
14263.743372409746,5192.220829990009,-27984.2052440888,-34837.78653595287,-38374.79363379403,-38661.052425033144,-28963.435168675802,-38257.983417270596
14345.75192281627,5143.9634137110015,-28042.61035235052,-34917.38109795822,-38149.37629096226,-38727.1912368764,-28880.33138279097,-38259.436280660186
14437.19290938293,5088.329921761742,-28117.533399764707,-35008.62091882478,-38148.214000250584,-38815.97236585288,-28936.85894451844,-38339.142601387815
14357.21836772184,5115.06260813029,-28086.777399394203,-34958.30714205589,-38382.750854820115,-38773.21347870988,-29040.816907980075,-38362.477822599154
14262.849302631534,5187.325797954297,-28001.997232675225,-34856.6290565287,-38424.906244862825,-38678.28562000819,-29001.142561571905,-38297.85892937886
14336.766521545234,5170.293768679353,-28017.55404681612,-34894.559966869354,-38180.10993958831,-38706.448818021876,-28884.757028193122,-38262.654931861754
14449.911051977999,5103.015017868879,-28096.589815210085,-35000.57429082088,-38101.81177876137,-38791.385446952045,-28899.263310344617,-38298.19420554569
14386.297987258195,5108.714712704982,-28102.9824141243,-34985.77743599146,-38344.864647968374,-38789.418493439975,-29025.796535706108,-38357.29221788552
14277.623805716492,5180.8884955511685,-28002.220750119777,-34864.67568453261,-38434.85277114544,-38686.019323589724,-29009.70327969829,-38302.217519547645
14317.409910846938,5174.115916981211,-28000.343203585533,-34879.00315272846,-38213.97283243809,-38684.700570666864,-28890.546130007046,-38239.38676588378
14429.258040101295,5098.611724211183,-28101.261329801244,-35001.110732687805,-38095.68740078061,-38791.98894405233,-28892.15545560783,-38296.987211345106
14402.592408966115,5099.7069596894935,-28118.136896865,-35000.66369779869,-38301.27874628052,-38802.40485696851,-29009.904445398384,-38355.839354495925
14287.34681455455,5174.674710592593,-28015.944721215335,-34880.724237051516,-38443.927579394294,-38694.80355916066,-29020.856800181486,-38301.63637419181
14304.624713018504,5189.896248566657,-27977.097389352013,-34862.01582694243,-38249.46740263312,-38670.507212937744,-28900.783228967575,-38242.739527552076
14435.38241808205,5130.462960059996,-28054.233259467277,-34956.854278666295,-38066.5854294998,-38758.39427213601,-28860.147757547827,-38277.608248902354
14440.009229184298,5105.496061503418,-28107.89979790447,-34988.54905230392,-38236.54809433795,-38795.38640920954,-28976.95797407126,-38341.53423804453
14308.312750853629,5159.028489473879,-28040.442233138354,-34896.34810642578,-38440.08307934798,-38714.51779777024,-29035.474841055257,-38313.63926096431
14291.548942512149,5194.724225369004,-27967.307325280588,-34844.76028022293,-38292.24864152058,-38658.01258778723,-28919.089307676473,-38235.743431537565
14407.822717168656,5131.49114030494,-28049.18176522038,-34953.076833853345,-38087.86429022125,-38750.23588540982,-28859.05252206952,-38259.45863240465
14442.534976307748,5096.376549765653,-28121.75787946676,-35005.40226762322,-38209.882463202775,-38809.82563612767,-28963.703389609265,-38340.90838919978
14335.090140711087,5156.011003972412,-28053.87563155599,-34908.21688273155,-38432.952872866736,-38728.01825142124,-29037.061814911583,-38328.88315068283
14286.028061631689,5200.98271381649,-27973.766979428172,-34837.94299816406,-38336.281578097536,-38657.94553255386,-28944.816165544533,-38249.66856833322
14391.349481505094,5150.132495180666,-28034.809593535614,-34928.2440457635,-38110.97599398804,-38734.5896642911,-28868.99904835213,-38257.11169923683
14453.509682835303,5093.24730554191,-28124.685957990405,-35010.543168847944,-38174.85727964131,-38813.42426698498,-28951.141709225383,-38336.37098507536
14367.611928893559,5149.908977736113,-28051.21577396581,-34916.97876655802,-38400.252270728626,-38739.305882371176,-29031.22800960875,-38332.48178154013
14294.029986146688,5210.79512963237,-27959.551269954598,-34825.18015208008,-38369.13864244684,-38651.910561550925,-28956.86375580594,-38251.45670788964
14378.631338910025,5170.494934379451,-28001.237273363746,-34894.224690702526,-38131.80781982039,-38707.16407384445,-28859.544260447536,-38240.39259438427
14461.086924205652,5104.669046958572,-28105.50816124775,-35001.02132570998,-38133.21597972107,-38809.02097332728,-28926.420679857813,-38330.71599372816
14382.297025000695,5135.536806051351,-28085.302184260156,-34949.12057508476,-38379.822776296474,-38770.3524554196,-29034.98310267724,-38354.230028895145
14287.659738976925,5204.804862118347,-27981.858310920994,-34843.1733063666,-38411.003459811625,-38670.46250944883,-28989.11732305495,-38273.89785932277
14347.584765861604,5182.497821151951,-27999.002098918212,-34886.62509758772,-38174.74552091903,-38699.65388770746,-28879.504368246126,-38245.77936479799
14450.559252567204,5110.704017961504,-28106.804562426158,-35002.07185769938,-38114.999307989994,-38811.926700106465,-28916.38474659738,-38327.56439775996
14400.42428975395,5121.656372744605,-28103.340042035587,-34978.7589882325,-38342.31654910047,-38798.381542966556,-29033.440832309825,-38366.97052323467
14283.63642497497,5183.794222330359,-28011.429668835364,-34871.67178054712,-38445.0228148726,-38693.931841126905,-29022.667291482365,-38297.52365321203
14321.947314971367,5186.498783409451,-28007.987500189247,-34875.896260249174,-38234.08940244787,-38698.469245251326,-28906.415868570315,-38252.95427476815
14445.105426920109,5125.1208931351775,-28094.220530297822,-34973.573383518866,-38091.932307712115,-38790.759598107295,-28894.7706097091,-38292.27099326503
14418.171574851463,5113.587392996239,-28117.064013131145,-34986.40328483621,-38301.41285674726,-38806.18230178145,-29018.93455015833,-38352.64305503882
14294.499372780248,5175.747594326448,-28028.64051206595,-34877.371475383225,-38449.67197771931,-38704.347754043076,-29033.574942776555,-38300.138807313306
14308.335102598085,5196.98175155899,-27980.49485450922,-34847.62130351321,-38256.30703643645,-38669.43432920388,-28908.427525571293,-38222.06416393092
14426.911106933489,5126.149073380122,-28076.56265217813,-34963.76096770298,-38086.88081346522,-38771.805318809194,-28880.040810113052,-38265.515955152034
14430.017999412776,5098.365855022175,-28133.60430402807,-35000.84251175434,-38250.38382415579,-38814.13952280754,-28999.488532482213,-38343.054156667495
14308.916247953923,5159.5202278518955,-28056.55784089063,-34896.70573433706,-38446.31921605101,-38725.76072523126,-29049.869364484475,-38319.36130754487
14284.150515097443,5185.135326997677,-27996.87868319496,-34853.00807392694,-38307.96191787266,-38675.55870718464,-28938.624732330412,-38240.504353106546
14399.530219975737,5129.233614114954,-28069.588907908073,-34949.165278573666,-38091.4405693341,-38754.63917906752,-28868.931993118764,-38243.09715546336
14438.623421028069,5090.028654340345,-28143.215554143855,-35009.67145081418,-38201.67937298767,-38816.37469725307,-28968.6878286228,-38323.4963802691
14317.45461433585,5136.162654896099,-28108.74916419377,-34930.993310331505,-38443.54759973855,-38755.42149012345,-29057.692475043834,-38330.85010419489
14268.996032356745,5188.778661343892,-28014.760078759205,-34857.38901584018,-38358.61097080839,-38682.28658226569,-28963.479872164713,-38247.43339388769
14379.681870899425,5145.259814889409,-28057.049579268645,-34934.16725804416,-38118.75440105848,-38743.32919637313,-28870.630725697367,-38233.351794880844
14438.556365794704,5081.602046680695,-28135.012463928757,-35012.19719793763,-38159.76985213398,-38821.783819411256,-28948.459499890745,-38308.587766717406
14351.339858930096,5132.184044383054,-28096.36629776553,-34932.69204291011,-38402.50979691861,-38759.221286680855,-29041.018073680174,-38316.63439472132
14279.143724339454,5200.110995782733,-27995.49287503873,-34835.5737132518,-38372.78197679305,-38667.13209952499,-28965.647991376878,-38237.24099841607
14349.0376292512,5148.97020446899,-28043.504422128728,-34914.18479850111,-38136.7028518561,-38730.78986773371,-28875.078722843973,-38230.222550657105
14436.321191349172,5084.932456604535,-28137.985245941312,-35012.62188108228,-38133.461848910076,-38826.00829911331,-28933.01444447213,-38306.53140622752
14368.930681816422,5118.974163409968,-28106.93867289289,-34955.58022923234,-38361.94138073223,-38781.39421718052,-29032.41265206488,-38329.1960751052
14277.199122571841,5196.557068414339,-28018.55987531661,-34842.5251057774,-38405.23670974216,-38678.10680605254,-28989.36319224396,-38254.6306556023
14339.784007046701,5178.318044938808,-28027.478221354275,-34877.25971666095,-38173.47147148508,-38704.16894008743,-28879.839644412954,-38219.00197494054
14448.972278710877,5112.827433684759,-28111.833704928602,-34986.87267146977,-38100.82830200533,-38807.36694423758,-28906.929958692785,-38289.857004863865
14403.978217122343,5124.517396034885,-28116.79579219768,-34960.698778712605,-38317.84138892191,-38794.84996734261,-29018.621625735956,-38334.40403156329
14290.341948311561,5186.476431664995,-28022.15850617391,-34848.15774538014,-38419.22890177118,-38690.3332102696,-29005.29998604059,-38265.739472596586
14321.16500391543,5184.710643853026,-28011.675538024374,-34855.623228028206,-38205.389762567254,-38684.208832288845,-28885.025249126586,-38208.69782074664
14444.546633308726,5120.114102377189,-28094.60050995356,-34963.068063624865,-38073.49211853649,-38781.86360381408,-28876.732751933665,-38257.73754808158
14419.512679518783,5106.501890003907,-28138.32052210814,-34974.8027294639,-38276.065978534934,-38803.83536861365,-29000.673174938343,-38319.31660405596
14297.941541426366,5175.345262926253,-28042.520945372697,-34861.16646065313,-38429.71186992072,-38707.94638490038,-29024.611893249978,-38281.07276929293
14294.477021035795,5183.257780463431,-28010.133267656955,-34849.43179481409,-38260.1291847383,-38687.360428257045,-28915.065993674518,-38222.175922653194
14410.884906159034,5116.269602330876,-28104.748201936272,-34958.70947345608,-38087.39490358769,-38783.65174337051,-28880.420789768792,-38257.402271914754
14441.931479207455,5111.575735995261,-28124.842420201592,-34973.81925270787,-38223.96406220962,-38805.26588025879,-28973.716971125243,-38313.482798753124
14323.64604754997,5168.840905289759,-28050.45581465433,-34879.91957425113,-38422.671070417295,-38715.90360592647,-29021.7508699597,-38282.25741174906
14295.147573369453,5201.094472538766,-27995.023488405168,-34830.23164632698,-38298.305964267965,-38670.88719259348,-28921.615054799924,-38209.79305622495
14402.99474036631,5142.331736365764,-28074.238070754778,-34929.942778342105,-38089.36185709976,-38755.22032442335,-28864.171071549783,-38228.16619016721
14446.066551931686,5102.925610891058,-28140.42158608694,-34988.50434881501,-38192.62691648328,-38813.267804773786,-28963.748093098176,-38301.591670702895
14345.662515838447,5164.303501165331,-28070.08064628609,-34896.90690003716,-38415.22793951368,-38735.77430674724,-29034.6031230215,-38296.38371424481
14285.759840698223,5209.252859264953,-27996.34224132803,-34822.050907856334,-38340.394299077314,-38666.55095416915,-28948.81712780203,-38226.35569886633
14384.88982735751,5158.559102840317,-28048.399454164442,-34907.81455133135,-38110.528959098934,-38740.80344924968,-28869.870766385888,-38229.61905355681
14451.654488045513,5102.210355068488,-28132.062033660655,-34990.67246802717,-38157.22175326607,-38820.75563916632,-28948.77242431312,-38301.949298614185
14354.737324087302,5141.482370076463,-28093.594681453073,-34921.896150338194,-38398.151206749826,-38765.32331291716,-29044.706111515297,-38313.95218538668
14264.458628232316,5190.097414266756,-28014.58126480356,-34838.85941968673,-38394.284354959054,-38687.785111401696,-28988.603232932477,-38252.5295916235
14343.740265815291,5156.301576650331,-28050.36640767651,-34899.34324018279,-38154.8077648649,-38737.67420502594,-28887.19336833875,-38234.08940244787
14449.374610111072,5103.707921946993,-28126.80937371366,-34987.610279036795,-38125.79520056191,-38819.19101705444,-28925.616017057422,-38292.718028154144
14390.030728582231,5141.281204376364,-28090.51014071824,-34927.1935137741,-38354.230028895145,-38776.38742642253,-29022.98021590474,-38308.20778706167
14282.652948218936,5198.591077159772,-28002.86895070898,-34828.37645153719,-38402.84507308544,-38687.67335267942,-28989.340840499503,-38252.99897825706
14343.583803604104,5184.732995597482,-28004.29946235412,-34860.60766704174,-38167.70472141561,-38702.06787610863,-28868.373199507383,-38208.65311725773
14454.627270058068,5125.67968674656,-28095.114600076035,-34960.31879905687,-38081.516394795945,-38796.19107200993,-28884.6676212153,-38260.218591716126
14398.725557175347,5121.63402100015,-28116.348757308577,-34950.148755329705,-38312.58872897491,-38801.801359868216,-29013.59248323351,-38325.73155471463
14281.44595401835,5187.973998543501,-28027.54527658764,-34845.78846046787,-38431.29884377705,-38702.64902146447,-29012.273730310648,-38266.25356271906
14313.096024167065,5189.762138099925,-28004.54533154313,-34840.15582086513,-38218.51023656252,-38685.21466078933,-28885.204063082227,-38192.78337869446
14430.129758135052,5119.734122721448,-28099.69670768937,-34949.90288614069,-38079.996476172986,-38783.2047084814,-28871.725961175678,-38237.44216411617
14415.154089349997,5107.217145826477,-28117.66751023144,-34964.85620318129,-38269.516917409535,-38803.23187151335,-28986.41276197586,-38300.00469684657
14293.381785557483,5169.779678556881,-28033.893172012948,-34864.04983568786,-38433.46696298921,-38711.88029192451,-29015.470029767755,-38270.47804242111
14304.088271151575,5203.17318477311,-27988.54148251313,-34826.85653291423,-38253.222495701615,-38675.89398335147,-28896.156417865328,-38199.399495053236
14412.47188001536,5124.383285568152,-28080.049524313155,-34940.76102265847,-38078.498909294474,-38774.44282465492,-28862.785263393554,-38232.79300126946
14430.085054646142,5096.935343377036,-28121.26614108874,-34976.434406809145,-38227.495637833556,-38814.519502463285,-28968.01727628914,-38303.558624214966
14314.057149178643,5160.59311158575,-28046.790128563658,-34877.03619921639,-38427.47669547519,-38726.54303628719,-29019.672157725356,-38277.898821580275
14283.435259274873,5193.2713619794085,-27987.49095052373,-34828.46585851501,-38308.83363590642,-38671.356579227046,-28918.217589642718,-38197.38783805226
14396.42332749645,5141.705887521015,-28051.79691932165,-34915.57060665734,-38090.85942397826,-38747.97835921984,-28849.441271953736,-38209.23426261357
14437.394075083028,5103.886735902636,-28125.021234157233,-34976.81438646488,-38188.42478852568,-38814.85477863011,-28947.230153945704,-38291.0863508089
14327.222326662819,5152.099448692733,-28063.97862004979,-34890.3354871673,-38415.764381380606,-38741.92103647245,-29024.164858360873,-38285.654876906265
14267.140837566953,5194.746577113459,-27983.847616177514,-34816.84295139825,-38349.759680004085,-38666.26038149123,-28939.116470708428,-38206.105018389826
14364.37092594754,5150.177198669577,-28042.140965716957,-34889.82139704483,-38116.83215103533,-38729.493466555294,-28852.346998732926,-38207.75904747952
14437.461130316393,5090.296875273809,-28124.082460890113,-34973.72984573005,-38152.66199739719,-38811.993755339834,-28922.509124578137,-38284.15731002776
14343.539100115193,5123.332753578753,-28088.342021506076,-34914.967109557045,-38396.966564293696,-38767.51378387377,-29027.472916540257,-38306.4419992497
14262.983413098267,5185.269437464409,-27993.86119769349,-34823.056736356826,-38386.08126474396,-38679.89494560897,-28966.67617162182,-38233.776478025495
14344.32141117113,5162.269492419898,-28017.2634741382,-34867.022617700415,-38140.368537946764,-38713.9366524144,-28854.67158015628,-38200.53943402045
14446.468883331881,5112.201584840011,-28110.60435898356,-34963.693912469615,-38118.66499408067,-38806.18230178145,-28906.72879299269,-38273.272010478024
14386.141525047009,5141.191797398544,-28087.35854475004,-34918.76690611445,-38350.78786024903,-38769.81601355267,-29016.900541412895,-38300.116455568845
14265.531511966172,5180.2402949619645,-28007.83103797806,-34828.89054165966,-38411.60695691192,-38683.51592821073,-28989.206730032773,-38236.48103910459
14308.379806086996,5151.54065508135,-28022.35967187401,-34873.81754801483,-38187.75423619202,-38713.26610008074,-28880.934879891265,-38207.781399223975
14421.926667919955,5087.547610705807,-28118.18160035391,-34982.13410164524,-38104.382229373725,-38815.994717597336,-28902.124333634896,-38277.49649018008
14391.930626860933,5104.5796399807505,-28111.118449106034,-34945.320778527355,-38311.806417918975,-38797.532176677254,-29007.40105001939,-38316.65674646577
14281.06597436261,5173.400661158641,-28006.311119355098,-34833.58440799527,-38425.77796289659,-38693.305992282156,-29001.25432029418,-38247.56750435442
14297.270989092707,5164.482315120973,-27998.57741577356,-34840.93813192107,-38226.17688491069,-38690.57907945861,-28886.09813286044,-38191.28581181596
14416.070510872665,5099.192869567021,-28090.577195951606,-34949.38879601822,-38077.98481917201,-38788.47972017285,-28867.792054151545,-38237.39746062725
14411.08607185913,5095.415424754075,-28121.9366934224,-34960.92229615716,-38263.66076036224,-38810.89851986153,-28983.484683452214,-38302.4410369922
14290.900741922946,5160.123724952188,-28040.375177904985,-34856.18202163959,-38441.64770145985,-38713.0872861251,-29021.996739148708,-38268.868716820325
14292.130087867987,5182.095489751755,-27993.034183148648,-34827.392974781156,-38267.21468773064,-38679.33615199759,-28906.080592403483,-38200.852358442826
14407.509792746281,5117.968334909479,-28071.645268397962,-34932.446173721095,-38076.129624382214,-38772.72174033186,-28863.813443638497,-38236.3245768934
14422.485461531338,5083.569000192761,-28138.1417081525,-34980.56947953338,-38228.5238180785,-38820.55447346622,-28977.11443628245,-38314.10864759787
14309.251524120751,5147.025602701378,-28052.758044333226,-34876.946792238574,-38429.71186992072,-38733.42737357943,-29028.009358407184,-38284.22436526112
14272.304090536129,5180.687329851071,-28000.38790707444,-34826.49890500294,-38318.60134823339,-38679.29144850867,-28931.449822360257,-38201.411152054214
14386.454449469382,5126.953736180512,-28072.472282942806,-34915.50355142398,-38106.63975556371,-38750.81703076566,-28864.551051205523,-38209.14485563575
14441.640906529536,5090.632151440639,-28123.23309460081,-34974.82508120836,-38182.83685241185,-38807.23283377085,-28950.404101658358,-38280.558679170455
14335.514823855738,5144.6116143002055,-28070.348867219553,-34889.486120878,-38412.255157501124,-38741.42929809443,-29029.194000863317,-38282.88326059381
14270.046564346143,5189.9856555444785,-28001.594901275028,-34808.438695483055,-38345.73636600213,-38668.540259425674,-28944.235020188695,-38205.14389337825
14362.381620691016,5143.9634137110015,-28045.672541340893,-34889.01673424444,-38119.82728479234,-38734.27673986873,-28861.175937792774,-38202.72990497707
14438.913993705988,5091.05683458529,-28121.556713766662,-34971.114691628776,-38148.616331650774,-38812.10551406211,-28929.68403454829,-38276.60242040186
14348.881167040012,5123.176291367566,-28093.728791919806,-34915.30238572388,-38390.77513107957,-38758.7519000473,-29029.79749796361,-38291.24281302009
14262.558729953615,5182.989559529968,-28020.63858755095,-34827.728250947985,-38392.94325029174,-38671.758910627235,-28976.265069993147,-38219.940748207664
14331.178585431408,5145.8409602452475,-28047.103052986033,-34868.78840551239,-38160.574514934364,-38718.317594327644,-28876.598641466935,-38199.93593692016
14427.112272633585,5088.665197928572,-28124.350681823576,-34969.1030346278,-38124.74466857251,-38810.78676113925,-28917.7258512647,-38268.935772053694
14370.137676017008,5121.29874483332,-28103.94353913588,-34928.86989460825,-38358.856839997396,-38779.80724332419,-29028.523448529657,-38308.45365625068
14263.519854965194,5179.323873439297,-28018.49282008324,-34827.102402103235,-38417.999555826136,-38685.75110265626,-29000.36025051597,-38245.77936479799
14315.420605590416,5171.456059391029,-28016.92819797137,-34849.99058842547,-38189.05063737043,-38697.977506873314,-28881.270156058094,-38190.8164251824
14418.238630084828,5101.338637034731,-28111.163152594945,-34948.33826402882,-38104.00224971798,-38798.940336577936,-28895.642327742855,-38246.919303765215
14390.880094871532,5117.29778257582,-28113.398327040475,-34935.038976077914,-38314.37686853133,-38788.47972017285,-29006.998718619197,-38298.06009507896
14280.797753429146,5185.939989798068,-28024.147811430434,-34842.10042263275,-38432.55054146654,-38693.37304751552,-29010.820866921054,-38249.95914101114
14305.384672329983,5189.270399721909,-28005.752325743717,-34835.95369290754,-38233.3741466253,-38682.599506688064,-28886.165188093804,-38185.85433791332
14421.099653375108,5124.718561734982,-28096.83568439909,-34942.05742383688,-38092.17817690113,-38780.09781600211,-28866.294487273037,-38229.52964657899
14423.088958631632,5116.940154664535,-28109.12914384951,-34957.92716240015,-38269.67337962072,-38794.84996734261,-28978.187320016306,-38289.81230137495
14306.770480486213,5189.829193333291,-28036.530677858675,-34835.73017546299,-38429.71186992072,-38694.758855671746,-29000.427305749337,-38241.688995562676
14301.227247861296,5212.896193611168,-27975.19749107331,-34803.78953263635,-38266.27591446351,-38664.51694542372,-28886.589871238455,-38174.901983130214
14396.80330715219,5127.467826302985,-28082.59762318106,-34927.86406610776,-38090.54649955589,-38765.01038849478,-28850.5588591765,-38213.12346614879
14405.386377023027,5084.507773459884,-28132.084385405113,-34967.001970649006,-38222.13121916428,-38807.29988900422,-28952.97455227072,-38282.83855710489
14293.314730324118,5133.771018239381,-28044.532602373674,-34851.711672748526,-38420.234730271666,-38714.11546637004,-29003.02010810615,-38254.72006258012
14224.605467868503,5148.858445746714,-28004.657090265406,-34816.57473046479,-38319.71893545615,-38671.80361411615,-28910.99797618365,-38185.3625995353
14322.684922538392,5077.086994300723,-28070.259460241734,-34908.19453098709,-38098.21314790406,-38748.738318531316,-28841.32758871646,-38197.72311421909
14358.961803789354,5015.865566237637,-28130.005673170766,-34983.2069853791,-38178.45591049861,-38815.011240841304,-28930.06401420403,-38275.015446545534
14229.142871992932,5035.982136247413,-28089.191387795378,-34910.742629855,-38413.6186139129,-38756.67318781295,-29015.82765767904,-38279.26227799205
14119.12758578391,5041.413610150053,-28019.610407306005,-34827.01299512541,-38356.97929346315,-38671.781262371696,-28934.48965960618,-38200.98646890956
14182.226560381241,4970.826801160193,-28075.93680333338,-34909.8932635657,-38127.29276744041,-38732.443896823395,-28845.730882374155,-38198.52777701947
14227.57824988106,4879.96695994937,-28152.71504553736,-34989.80074999342,-38143.98952054853,-38821.67206068898,-28914.23897912967,-38277.541193668985
14110.902143824356,4887.387739108532,-28121.89198993349,-34948.07004309536,-38390.50691014611,-38785.015199782276,-29027.651730495898,-38305.54792947149
14001.065671570977,4932.761780352805,-28040.73280581627,-34854.304475105346,-38412.43397145677,-38699.8327016631,-28981.584785173513,-38247.85807703234
14044.673925003282,4873.127326146046,-28070.70649513084,-34898.963260527045,-38168.37527374927,-38734.38849859101,-28864.863975627897,-38214.46457081611
14125.587239931494,4793.622171118519,-28165.120263710054,-35002.89887224422,-38124.18587496113,-38824.95776712391,-28904.42656331379,-38267.281742964
14053.145236151844,4803.680456123407,-28158.638257818016,-34975.093302141824,-38360.91320048728,-38798.515653433285,-29020.74504145921,-38286.8842228513
13952.629441336328,4876.614198281074,-28050.03113150968,-34856.8302222288,-38425.688555918765,-38691.16022481444,-28987.999735832185,-38217.079724917385
13984.838305096426,4852.653128224984,-28058.07775951359,-34891.09544647878,-38202.79696021044,-38703.498387753774,-28873.067065842995,-38172.1080150733
14076.100477707443,4768.834086517583,-28167.042513733213,-35014.11944796079,-38117.07802022434,-38813.29015651824,-28890.38966779586,-38237.553922838444
14043.019895913589,4773.080917964091,-28189.438961677428,-35018.34392766284,-38330.760697217076,-38820.532121721764,-29013.570131489058,-38302.53044397002
13932.915202726746,4849.233311323323,-28085.011611582235,-34882.3335626523,-38446.721547451205,-38707.208777333355,-29009.189189575816,-38242.76187929653
13933.697513782683,4839.733819929817,-28080.65302141345,-34883.1829289416,-38262.25260046156,-38699.56448072964,-28897.87750218839,-38182.92625938967
14071.183093927277,4790.738796083784,-28154.167908926956,-34983.92224120167,-38107.39971487519,-38796.16872026548,-28879.794940924043,-38233.59766406985
14069.618471815405,4775.740775554273,-28196.077429780657,-35011.12431420378,-38295.221423533134,-38824.220159556884,-29001.20961680527,-38305.52557772703
13951.243633180098,4846.3052327996775,-28111.520780506227,-34901.265490205944,-38470.347341340464,-38734.254388124275,-29036.346559089015,-38270.14276625428
13958.440894894708,4893.869745000571,-28055.73082634578,-34852.00224542645,-38302.48574048111,-38680.923125853915,-28915.870656474908,-38190.45879727111
14077.821562030502,4836.403410005976,-28131.36912958254,-34955.98256063254,-38104.225767162534,-38765.636237339524,-28863.679333171767,-38208.7201724911
14115.819527604524,4823.886433111004,-28183.15812148549,-35000.060200698405,-38242.09132696287,-38825.494208990836,-28977.20384326027,-38293.94737409918
14011.63804669834,4898.496556102819,-28112.951292151367,-34897.68921109309,-38454.14232661037,-38737.78596374822,-29036.301855600104,-38273.495527922576
13985.53120917454,4952.967757340402,-28043.392663406452,-34840.91578017661,-38349.53616255953,-38671.53539318268,-28932.16507818283,-38190.10116935983
14093.93716978278,4896.529602590752,-28106.916321148437,-34939.48697322452,-38120.58724410382,-38753.141612189014,-28852.883440599853,-38201.52291077649
14149.928289643323,4856.452924782387,-28181.995830773812,-35011.70545955962,-38210.88829170326,-38835.46308701791,-28948.21363070174,-38294.05913282146
14063.40468685683,4924.178710481967,-28125.445917301884,-34926.031223062426,-38440.03837585907,-38766.61971409556,-29030.155125874895,-38298.730647412616
14003.323197760965,4979.70044370895,-28041.448061638843,-34845.87786744569,-38380.60508735241,-38677.637419418985,-28938.49062186368,-38208.58606202436
14111.08095778,4955.962891097413,-28086.576233694108,-34925.740650384505,-38150.672692140666,-38738.456516081875,-28843.160431761797,-38192.98454439456
14209.719206061269,4919.060161001702,-28165.164967198965,-35007.97271823558,-38162.85439286881,-38823.14727582303,-28904.225397613693,-38274.456652934154
14134.0361993356,4963.830705145682,-28122.94252192289,-34941.118650569755,-38397.927689305274,-38770.419510652966,-28993.475913223734,-38288.806472874465
14054.575747796984,5034.372810646631,-28038.162355203913,-34846.749585479454,-38407.94127082125,-38681.63838167649,-28935.137860195384,-38223.69584127615
14132.359818501453,5012.557508058251,-28049.494689642754,-34886.91567026564,-38158.764023633485,-38707.61110873355,-28811.599768590902,-38182.47922450057
14240.765779109692,4952.990109084858,-28147.551792568185,-34996.99801170803,-38123.89530228321,-38802.1589877795,-28851.095301043428,-38248.61803634382
14194.318854131563,4987.7694234573155,-28136.241809873798,-34963.17982234715,-38366.36702613438,-38789.1055690176,-28974.029895547617,-38303.58097595942
14106.208277488742,5067.967482562957,-28029.623988821982,-34839.23939934247,-38433.578721711485,-38678.71030315284,-28939.049415475063,-38230.647233801756
14160.858292681969,5067.699261629494,-28017.218770649288,-34851.75637623744,-38195.97967815157,-38678.86676536402,-28806.682384810734,-38178.835890154354
14276.193294071352,5001.336932341687,-28115.119411363532,-34974.66861899717,-38087.68547626561,-38782.06476951418,-28811.040974979518,-38240.39259438427
14244.833796600557,5001.962781186436,-28147.79766175719,-34987.967906948084,-38317.953147644184,-38795.27465048726,-28942.178659698806,-38305.637336449305
14136.427835992317,5075.38826172212,-28047.32657043059,-34873.862251503735,-38442.96645438272,-38694.758855671746,-28944.6820550778,-38250.76380381153
14162.400563049385,5092.509697974885,-28018.29165438314,-34861.83701298678,-38243.365376396825,-38675.49165195128,-28819.37817566135,-38189.27415481498
14301.182544372386,5044.408743907064,-28097.32742277711,-34960.0505781234,-38079.996476172986,-38765.47977512834,-28790.969108458652,-38240.839629273374
14292.73358496828,5016.357304615653,-28146.680074534426,-34992.080627927855,-38262.81139407294,-38799.58853716714,-28910.215665127715,-38309.92887138473
14170.380135819929,5075.611779166673,-28067.59960265155,-34892.57066161283,-38451.191896342265,-38705.19712033238,-28955.187374971792,-38273.45082443367
14166.446228795796,5115.911974419591,-28015.743555515237,-34847.35308257974,-38281.20687975966,-38657.65495987594,-28841.171126505273,-38200.07004738689
14282.563541241116,5051.226025965932,-28104.85996065855,-34961.05640662389,-38092.222880390036,-38754.28155115623,-28803.977823731642,-38241.3760711403
14316.158213157441,5023.3981041190755,-28150.47987109183,-35004.44114261164,-38219.60547204083,-38802.695429646425,-28911.57912153949,-38313.97453713114
14206.589961837526,5086.38531999413,-28073.03107655419,-34907.81455133135,-38434.09281183396,-38714.87542568152,-28976.73445662671,-38292.96389734315
14176.482162056229,5136.6320415296605,-28000.67847975236,-34840.2228760985,-38330.40306930579,-38644.62389285849,-28874.85520539942,-38208.63076551328
14295.192276858364,5098.634075955639,-28051.819271066102,-34914.967109557045,-38094.43570309111,-38711.00857389076,-28788.06338167946,-38204.60745151132
14347.942393772888,5047.649746853083,-28129.536286537208,-34990.38189534925,-38162.51911670198,-38784.90344106,-28875.793978666545,-38286.347780984375
14240.430502942861,5084.172497293055,-28086.285661016187,-34921.15854277117,-38405.12495101988,-38729.158190388465,-28972.6887908803,-38300.51878696904
14177.935025445822,5141.1470939096325,-28009.68623276785,-34839.88759993167,-38375.39713089432,-38652.804631329134,-28908.561636038023,-38233.150629180745
14274.20398881483,5104.53493649184,-28051.305180943633,-34905.06528676335,-38129.21501746357,-38701.57613773062,-28812.583245346934,-38216.587986539365
14357.263071210751,5048.119133486644,-28141.159193653966,-34998.27206114198,-38136.43463092263,-38791.318391718676,-28880.554900235526,-38294.50616771056
14281.155381340432,5079.657444913083,-28096.18748380989,-34936.87181912325,-38373.49723261562,-38744.33502487362,-28982.814131118554,-38313.1922260752
14193.76006052018,5142.197625899033,-28013.754250258717,-34837.13833536367,-38399.08998001695,-38651.10589875053,-28936.85894451844,-38240.9290362512
14263.273985776184,5120.158805866099,-28038.519983115195,-34879.58429808429,-38167.77177664897,-38682.71126541034,-28833.12449850136,-38211.84941671484
14371.74700161779,5063.318319716253,-28120.439126543897,-34975.83090970885,-38097.36378161476,-38768.83253679664,-28860.05835057001,-38265.158327240744
14309.050358420654,5071.230837253433,-28126.921132435935,-34950.93106638564,-38343.814115978974,-38760.07065297016,-28984.557567186068,-38312.700487697184
14201.940798990823,5134.106294406211,-28035.77071854719,-34851.19758262606,-38433.4222595003,-38671.781262371696,-28974.141654269893,-38263.81722257343
14244.967907067288,5126.7078669915045,-28037.290637170154,-34864.76509151043,-38213.88342546027,-38678.620896175016,-28858.359617991406,-38212.49761730404
14362.962766046854,5065.4864389284185,-28110.693765961383,-34967.896040427215,-38096.80498800337,-38772.364112420575,-28857.644362168834,-38261.29147544998
14336.766521545234,5069.688566886016,-28129.37982432602,-34959.24591532301,-38302.217519547645,-38778.42143516796,-28973.69461938079,-38313.70631619768
14214.234258441242,5128.92068969258,-28052.243954210753,-34860.093576919266,-38449.76138469713,-38688.27684977971,-28990.525482955636,-38271.23800173259
14244.118540777987,5153.664070804604,-28004.29946235412,-34833.539704506366,-38245.53349560899,-38653.4751836628,-28864.238126783148,-38197.81252119691
14363.208635235864,5089.983950851435,-28091.27010002972,-34942.951493615095,-38083.37158958573,-38750.30294064319,-28840.835850338444,-38241.554885095946
14371.679946384425,5082.473764714452,-28123.52366727873,-34957.45777576659,-38247.38869039878,-38773.79462406571,-28947.520726623625,-38302.48574048111
14239.022343042177,5132.474617060973,-28055.216736223312,-34865.23447814399,-38438.38434676938,-38691.696666681375,-28992.760657401166,-38269.40515868725
14220.202174210808,5156.5250940948845,-28011.206151390812,-34839.820544698305,-38297.5907084454,-38657.05146277565,-28891.887234674363,-38211.357678336826
14336.140672700487,5096.510660232385,-28082.307050503143,-34941.76685115896,-38093.474578079535,-38747.62073130855,-28842.71339687269,-38241.46547811812
14376.8431993536,5073.488363443418,-28127.65874000296,-34972.67931374065,-38204.16041662222,-38786.3563044496,-28933.14855493886,-38299.557661957464
14263.855131132023,5126.0596664023005,-28062.70457061584,-34884.65814407565,-38409.84116909995,-38702.67137320893,-28990.12315155544,-38278.07763553591
14212.24495318472,5163.543541853851,-28014.245988636732,-34825.40366952463,-38330.470124539155,-38647.59667487105,-28905.05241215854,-38211.38003008128
14321.276762637706,5117.722465720471,-28062.88338457148,-34908.35099319828,-38093.49692982399,-38717.44587629389,-28822.887399540832,-38211.402381825734
14380.88886510001,5071.5884651647175,-28120.260312588252,-34983.92224120167,-38159.948666089615,-38790.58078415165,-28906.013537170118,-38290.95224034217
14284.39638428645,5116.694285475527,-28081.971774336314,-34904.707658852065,-38396.02779102657,-38726.54303628719,-28992.246567278693,-38297.05426657847
14208.221639182764,5167.812725044814,-28012.30138686912,-34827.19180908106,-38367.90929650179,-38651.24000921727,-28927.29239789157,-38224.00876569853
14302.724814739802,5137.324945607776,-28045.001989007236,-34885.418103387135,-38123.15769471618,-38697.776341173216,-28828.095355998918,-38205.00978291152
14386.834429125123,5080.1491832911,-28127.792850469694,-34971.09233988432,-38121.28014818193,-38784.36699919307,-28890.65788872932,-38278.05528379146
14305.407024074439,5108.312381304787,-28107.69863220437,-34921.896150338194,-38361.8072702655,-38741.33989111661,-28995.956956858274,-38301.90459512527
14208.28869441613,5164.795239543348,-28029.668692310894,-34827.77295443689,-38397.4135991828,-38653.452831918345,-28954.852098804964,-38234.78230652599
14281.73652669627,5143.87400673318,-28035.994235991748,-34864.58627755479,-38155.70183464311,-38677.59271593007,-28840.634684638346,-38194.30329731743
14388.130830303531,5085.938285105024,-28111.923111906424,-34960.29644731241,-38091.70879026756,-38769.1007577301,-28867.747350662634,-38254.80946955794
14331.290344153686,5091.347407263209,-28117.33223406461,-34933.58611268832,-38324.43515353622,-38755.33208314563,-28985.183416030817,-38298.32831601242
14219.688084088337,5151.8312277592695,-28028.148773687935,-34830.74573644945,-38411.204625511724,-38660.583038399585,-28967.570241400033,-38237.88919900527
14258.088381062555,5145.326870122775,-28021.622064306983,-34845.006149411936,-38198.01368689701,-38668.56261117013,-28855.163318534294,-38193.74450370604
14374.742135374801,5078.830430368237,-28111.073745617123,-34950.86401115227,-38080.64467676219,-38764.76451930577,-28854.42571096727,-38241.756050796044
14350.490492640793,5076.282331500332,-28129.670397003938,-34946.48306923903,-38277.67530413572,-38764.09396697211,-28963.122244253427,-38284.22436526112
14224.873688801968,5137.615518285695,-28044.2196779513,-34850.99641692596,-38428.79544839805,-38674.99991357326,-28980.4895496952,-38246.226399687104
14236.451892429817,5147.740858523948,-28011.78729674665,-34832.198599839045,-38245.80171654245,-38656.4256139309,-28867.926164618275,-38187.55307049192
14355.810207821156,5084.641883926616,-28092.253576785755,-34940.38104300273,-38074.78851971489,-38750.481754598826,-28837.23721948114,-38220.38778309677
14359.185321233908,5066.134639517622,-28137.739376752303,-34976.03207540895,-38241.59958858485,-38783.65174337051,-28947.498374879167,-38289.32056299693
14242.688029132847,5135.49210256244,-28057.96600079131,-34864.40746359914,-38422.671070417295,-38691.00376260326,-28984.132884041417,-38256.1282224808
14225.231316713252,5160.146076696644,-28001.192569874835,-34820.75450667793,-38283.86673734984,-38648.490744649265,-28876.978621122675,-38183.01566636749
14350.289326940696,5108.5135470048845,-28060.84937582605,-34916.12940026872,-38074.520298781434,-38731.77334448974,-28818.70762332769,-38205.79209396745
14396.624493196547,5082.987854836923,-28115.23117008581,-34960.34115080132,-38180.19934656612,-38777.14738573401,-28911.467362817213,-38273.7861006005
14271.924110880389,5127.087846647245,-28065.207965994832,-34886.46863537653,-38409.237671999654,-38712.439085535894,-28988.26795676565,-38267.77348134202
14221.208002711297,5169.667919834605,-27996.811627961593,-34816.23945429796,-38327.184418104225,-38652.469355162306,-28901.05144990104,-38198.66188748621
14323.288419638684,5117.007209897901,-28065.02915203919,-34901.66782160614,-38101.5435578279,-38723.078515896625,-28824.89905654181,-38201.902890432226
14384.554551190682,5067.386337207119,-28134.163097639455,-34977.93197368765,-38162.13913704624,-38796.14636852102,-28905.25357785864,-38275.64129539028
14286.855076176535,5110.324038305765,-28089.973698851314,-34900.52788263892,-38399.201738739226,-38738.456516081875,-28994.16881730185,-38290.57226068643
14206.433499626339,5157.150942939633,-28022.918465485393,-34823.14614333465,-38382.59439260893,-38665.41101520193,-28935.473136362212,-38221.95240520864
14301.920151939412,5121.477558788963,-28047.594791364052,-34884.233460931,-38133.77477333245,-38706.49352151078,-28832.4539461677,-38190.63761122675
14391.75181290529,5069.755622119382,-28128.195181869887,-34972.18757536264,-38123.78354356093,-38792.39127545253,-28883.52768224808,-38261.64910336126
14323.534288827694,5111.039294128334,-28086.039791827177,-34907.211054231055,-38349.15618290379,-38745.787888263214,-28978.097913038484,-38282.34681872688
14219.464566643783,5162.358899397719,-28004.34416584303,-34817.245282798445,-38382.907317031306,-38654.68217786338,-28934.042624717073,-38207.6696405017
14282.764706941212,5136.050896173822,-28029.19930567733,-34863.602800798755,-38161.04390156793,-38687.89687012397,-28833.817402579476,-38181.22752681107
14390.254246026785,5073.667177399061,-28123.12133587853,-34975.11565388628,-38099.08486593782,-38786.24454572732,-28866.249783784126,-38248.48392587709
14334.687809310892,5081.110308302678,-28124.440088801395,-34956.720168199565,-38330.20190360569,-38774.62163861056,-28983.77525613013,-38292.82978687642
14225.968924280278,5151.719469036993,-28030.942741744846,-34847.241323857466,-38430.89651237685,-38681.481919465296,-28976.443883948792,-38241.1749054402
14267.520817222694,5154.40167837163,-28011.429668835364,-34848.85064945825,-38208.340192835356,-38675.044617062165,-28854.22454526717,-38188.60360248132
14365.488513170305,5068.280406985332,-28109.643233971983,-34957.59188623332,-38088.803063488376,-38764.16102220548,-28846.08851028544,-38223.18175115368
14341.862719281045,5065.754659861882,-28133.067862161144,-34958.84358392282,-38287.755940885065,-38774.666342099474,-28964.172776242827,-38277.608248902354
14234.574345895571,5146.131532923167,-28041.69393082785,-34850.28116110339,-38436.171524068304,-38677.97269558581,-28979.953107828274,-38236.07870770439
14244.051485544622,5161.062498219311,-28000.38790707444,-34827.08005035878,-38253.04368174597,-38648.96013128282,-28859.030170325062,-38166.72124465957
14361.398143934983,5093.62728519765,-28081.99412608077,-34931.619159176254,-38084.377418086224,-38743.95504521788,-28829.078832754953,-38205.814445711905
14370.472952183838,5074.382433221631,-28115.588797997094,-34962.665732224676,-38238.85032401685,-38780.053112513204,-28938.7811945416,-38278.18939425819
14254.400343227428,5143.002288699423,-28038.63174183747,-34859.31126586333,-38428.88485537587,-38689.01445734673,-28979.30490723907,-38249.84738228886
14232.182709238854,5176.194629215554,-27980.852482420505,-34815.41243975311,-38293.276821765525,-38641.71816607931,-28873.469397243192,-38177.96417212059
14348.858815295556,5116.224898841965,-28052.26630595521,-34915.391792701696,-38083.66216226365,-38722.63148100752,-28812.76205930258,-38192.42575078318
14387.549684947693,5076.483497200429,-28117.42164104243,-34970.8017672064,-38193.029247883474,-38777.750882834305,-28913.031984929086,-38268.51108890904
14284.910474408922,5139.023678186379,-28047.348922175042,-34863.20046939856,-38412.679840645775,-38695.04942834967,-28978.92492758333,-38251.72492882311
14235.937802307344,5188.733957854982,-27975.935098640337,-34794.46885519849,-38326.46916228165,-38626.09429670504,-28888.914452661807,-38171.16924180618
14340.678076824914,5144.343393366742,-28034.809593535614,-34877.773806783414,-38105.23159566303,-38697.73163768431,-28815.84660003741,-38178.43355875416
14398.747908919802,5083.479593214941,-28120.148553865976,-34962.84454618031,-38163.83786962484,-38781.97536253636,-28902.616072012912,-38259.793908571475
14300.154364127442,5121.589317511239,-28079.31191674613,-34890.156673211655,-38397.97239279418,-38725.0901728976,-28989.07261956604,-38267.974647042116
14226.14773823592,5184.844754319758,-27988.07209587957,-34794.62531740968,-38371.48557561464,-38636.8678375325,-28913.456668073737,-38190.48114901557
14317.588724802581,5154.9381202385575,-28014.245988636732,-34853.76803323842,-38126.331642428835,-38682.17482354341,-28809.61046333438,-38166.76594814849
14405.051100856197,5086.228857782943,-28118.136896865,-34961.92812465765,-38125.66109009518,-38782.40004568101,-28871.725961175678,-38244.57237059741
14328.675190052414,5119.890584932636,-28088.163207550435,-34911.23436823301,-38365.47295635616,-38745.944350474405,-28980.24368050619,-38273.47317617812
14219.486918388238,5174.719414081504,-28000.07498265207,-34811.18796005106,-38400.98987829565,-38657.87847732049,-28939.071767219517,-38208.966041680105
14275.34392778205,5148.769038768893,-28020.996215462237,-34856.405539084146,-38178.92529713217,-38687.22631779031,-28837.7066061147,-38178.50061398752
14398.055004841686,5097.62824745515,-28114.158286351954,-34947.265380294964,-38105.365706129756,-38767.469080384864,-28854.33630398945,-38224.053469187435
14351.07163799663,5113.25211682941,-28106.51398974824,-34914.18479850111,-38322.13292385732,-38749.207705164874,-28958.651895362367,-38263.14667023977
14235.446063929328,5179.659149606126,-28001.39373557493,-34805.82354138178,-38420.54765469404,-38656.537372653176,-28949.68884583579,-38212.385858581765
14283.658776719425,5187.906943310135,-27975.91274689588,-34806.069410570795,-38195.93497466266,-38649.20600047183,-28824.139097230327,-38154.07015729787
14401.765394421267,5117.856576187203,-28076.98733532278,-34923.30431023888,-38071.70397898006,-38753.16396393347,-28826.08369899794,-38210.284794602965
14372.730478373824,5105.5184132478735,-28103.675318202415,-34934.21196153307,-38274.76957735653,-38771.26887694227,-28946.7831190566,-38271.6850366217
14249.326497236074,5171.545466368851,-28012.16727640239,-34818.80990491032,-38422.17933203928,-38678.44208221937,-28962.809319831053,-38237.03983271597
14249.929994336368,5179.793260072859,-27982.081828365546,-34811.00914609541,-38247.16517295423,-38657.498497664754,-28855.208022023206,-38173.06914008488
14362.761600346757,5103.6408667136275,-28076.27207950021,-34926.925292840635,-38080.86819420674,-38756.60613257958,-28832.31983570097,-38207.624937012784
14378.832504610124,5088.195811295011,-28122.406080055964,-34954.462642009574,-38235.49756234855,-38791.8548335856,-28942.87156377692,-38276.02127504603
14256.903738606423,5147.740858523948,-28050.344055932055,-34850.41527157012,-38433.13168682238,-38703.23016682031,-28990.659593422366,-38251.00967300054
14238.15062500842,5185.671768864604,-27984.54052025563,-34797.08400929976,-38299.04357183499,-38645.31679693661,-28881.00193512463,-38172.08566332885
14355.989021776799,5133.145169394633,-28049.449986153842,-34891.1848534566,-38086.07615066483,-38722.47501879633,-28818.148829716305,-38183.730922190065
14395.216333295863,5090.520392718362,-28113.532437507205,-34948.606484962285,-38192.403399038725,-38783.04824627021,-28917.05529893104,-38259.86096380484
14278.272006305697,5138.107256663711,-28058.815367080613,-34863.28987637638,-38418.37953548188,-38708.01344013375,-28987.396238731893,-38253.222495701615
14218.749310821213,5178.653321105638,-27989.279090080156,-34798.089837800246,-38340.84133396642,-38644.288616691665,-28901.00674641213,-38183.105073345316
14327.758768529746,5135.961489196002,-28041.35865466102,-34873.728141037005,-38113.322927155845,-38703.81131217615,-28819.244065194616,-38175.17020406368
14405.274618300751,5085.8488781272035,-28113.554789251662,-34954.30617979839,-38153.958398575596,-38777.86264155658,-28891.462551529712,-38249.04271948847
14302.791869973169,5119.06357038779,-28082.88819585898,-34889.486120878,-38394.37376193688,-38730.74516424479,-28984.17758753033,-38265.96299004114
14223.174956223364,5180.083832750778,-27984.54052025563,-34793.03834355335,-38381.90148853081,-38646.30027369264,-28915.445973330257,-38188.491843759046
14313.766576500724,5153.194684171043,-28011.429668835364,-34849.63296051419,-38133.5512558879,-38687.22631779031,-28807.777620289045,-38161.53563994594
14408.783842180233,5091.682683430038,-28102.825951913113,-34945.34313027181,-38120.45313363709,-38776.78975782273,-28859.924240103275,-38233.776478025495
14336.900632011966,5113.25211682941,-28077.52377718971,-34894.11293198025,-38348.373871847856,-38733.80735323517,-28956.707293594754,-38253.647178846266
14222.727921334259,5166.9186552666015,-27999.560892529596,-34795.31822148779,-38400.92282306228,-38645.56266612562,-28925.77247926861,-38188.78241643696
14293.359433813028,5161.174256941588,-27987.781523201647,-34821.82739041178,-38168.285866771446,-38661.52181166671,-28809.878684267842,-38141.419069936164
14406.950999134899,5097.471785243963,-28082.105884803044,-34928.66872890815,-38093.16165365716,-38761.67997857094,-28832.163373489784,-38202.4169805547
14355.586690376604,5102.255058557398,-28093.684088430895,-34911.43553393311,-38317.617871477356,-38757.544905846706,-28951.432281903304,-38258.117527737326
14228.628781870459,5158.514399351407,-28007.49576181123,-34814.89834963064,-38423.386326239866,-38665.120442524014,-28945.06203473354,-38208.27313760199
14259.25067177423,5154.848713260736,-27993.72708722676,-34817.33468977627,-38219.56076855192,-38667.33326522509,-28832.833925823445,-38161.557991690395
14388.331996003628,5092.263828785876,-28079.446027212864,-34926.27709225143,-38085.91968845364,-38765.300961172696,-28826.620140864867,-38212.810541726416
14368.573053905136,5081.736157147427,-28111.721946206326,-34938.52584821294,-38280.24575474808,-38780.03076076874,-28941.61986608742,-38268.22051623112
14232.696799361325,5137.30259386332,-28033.98257899077,-34837.54066676387,-38448.822611430005,-38687.65100093496,-28966.653819877367,-38227.6744517892
14234.015552284189,5155.631024316672,-28001.0584594081,-34814.875997886185,-38272.646161633274,-38661.11948026651,-28853.263420255593,-38161.46858471258
14369.400068449982,5106.233669070443,-28071.488806186775,-34915.86117933526,-38091.373514100735,-38746.503144085786,-28812.60559709139,-38189.22945132607
14385.22510352434,5085.692415916016,-28112.83953342909,-34949.724072185054,-38239.38676588378,-38785.97632479385,-28920.788040255076,-38261.02325451651
14256.769628139691,5141.6164805431945,-28042.431538394874,-34857.031387928895,-38434.495143234155,-38704.28069880971,-28973.91813682534,-38242.873638018806
14223.800805068113,5166.538675610862,-27995.626985505463,-34813.110210074214,-38320.21067383417,-38657.87847732049,-28878.587946723455,-38173.247954040526
14352.882129297512,5117.543651764829,-28055.26143971222,-34901.44430416159,-38099.911880482665,-38729.69463225539,-28809.09637321191,-38180.35580877731
14400.46899324286,5080.886790858125,-28114.627672985516,-34953.45681350909,-38187.150739091725,-38785.082255015644,-28899.509179533623,-38250.629693344796
14289.671395977903,5132.58637578325,-28052.2216024663,-34864.005132198945,-38405.99666905364,-38706.56057674415,-28966.609116388456,-38240.3255391509
14223.62199111247,5170.360823912719,-27983.177063843857,-34801.576709935274,-38344.28350261253,-38645.24974170324,-28889.33913580646,-38175.192555808135
14322.193184160375,5117.968334909479,-28036.955361003325,-34883.96523999754,-38116.318060912854,-38713.914300669945,-28811.219788935163,-38176.64541919773
14393.025862339242,5061.507828415373,-28119.70151897687,-34969.01362764998,-38155.12068928727,-38790.98311555185,-28882.723019447687,-38245.3770333978
14305.630541518993,5107.932401649046,-28074.08160854359,-34893.800007557875,-38387.13179673336,-38730.92397820044,-28974.231061247716,-38256.03881550298
14220.649209099915,5166.203399444032,-27988.407372046397,-34803.543663447344,-38376.91704951728,-38643.90863703592,-28911.310900606026,-38181.071064599884
14298.232114104285,5131.938175194046,-28033.379081890474,-34865.2791816329,-38153.01962530847,-38692.18840505939,-28818.12647797185,-38161.37917773476
14400.536048476226,5079.769203635359,-28114.627672985516,-34946.080737838834,-38130.75728783099,-38773.548754876705,-28861.935897104253,-38225.28281513248
14337.861757023546,5111.1510528506105,-28075.1768440219,-34893.12945522421,-38347.7033195142,-38730.74516424479,-28953.57804937101,-38244.34885315286
14226.997104525222,5167.745669811448,-27991.3578023145,-34798.46981745599,-38403.89560507484,-38647.641378359964,-28925.280740890594,-38184.1109018458
14276.863846405013,5148.143189924144,-28012.34609035803,-34837.33950106377,-38186.659000713706,-38678.55384094165,-28823.826172807956,-38156.685311399146
14395.28338852923,5088.329921761742,-28092.253576785755,-34937.22944703454,-38099.241328149,-38771.71591183137,-28838.645379381822,-38215.38099233878
14343.7849693042,5091.146241563111,-28114.627672985516,-34929.04870856389,-38318.802513933486,-38769.03370249674,-28953.5333458821,-38266.54413539697
14218.391682909929,5149.30548063582,-28016.45881133781,-34827.5717887368,-38437.33381477998,-38680.38668398699,-28950.962895269742,-38218.48788481807
14249.974697825277,5152.546483581839,-27994.24117734923,-34823.03438461237,-38237.15159143825,-38673.792919372674,-28839.874725326867,-38161.51328820149
14380.106554044076,5093.090843330722,-28080.40715222444,-34925.38302247322,-38095.977973458525,-38762.372882649055,-28823.625007107858,-38197.164320607706
14369.824751594633,5090.296875273809,-28106.89396940398,-34932.71439465456,-38276.82593784642,-38776.67799910045,-28932.29918864956,-38254.8765247913
14238.709418619803,5147.003250956924,-28030.294541155643,-34830.41046028262,-38441.84886715995,-38686.89104162348,-28958.45072966227,-38218.532588306975
14240.72107562078,5166.002233743934,-27987.53565401264,-34800.83910236825,-38274.97074305663,-38651.46352666182,-28846.624952152368,-38147.67755838365
14381.581769178125,5119.622363999172,-28054.009742022725,-34893.06239999085,-38080.30940059536,-38732.22037937884,-28799.105143440385,-38170.05165458342
14395.596312951604,5088.955770606491,-28111.833704928602,-34935.24014177801,-38228.680280289685,-38777.192089222925,-28906.080592403483,-38244.10298396385
14258.20013978483,5133.994535683934,-28053.2721344557,-34851.33169309279,-38440.39600377035,-38704.30305055417,-28966.16208149935,-38228.27794888949
14229.142871992932,5169.600864601239,-27991.335450570044,-34802.04609656884,-38323.541083758006,-38654.3245499521,-28868.104978573916,-38158.98754107804
14352.278632197218,5124.495044290429,-28049.718207087306,-34890.06726623383,-38107.243252664004,-38730.365184589056,-28801.765001030566,-38170.87866912826
14398.747908919802,5084.6195321821615,-28105.128181592012,-34939.77754590244,-38182.88155590076,-38779.829595068644,-28880.912528146808,-38232.07774544689
14281.378898784984,5125.523224535373,-28058.390683935962,-34864.630981043694,-38413.95389007973,-38716.507103026765,-28962.429340175313,-38235.60932107083
14212.602581096004,5167.0304139888785,-27996.54340702813,-34803.476608213976,-38364.17655517776,-38654.905695307934,-28889.76381895111,-38169.537564460945
14321.723797526813,5127.892509447635,-28037.581209848075,-34873.9293067371,-38130.86904655326,-38708.527530256215,-28800.155675429785,-38159.255762011504
14401.765394421267,5079.970369335458,-28117.33223406461,-34955.53552574343,-38159.389872478234,-38780.94718229141,-28869.021400096586,-38235.22934141509
14306.770480486213,5120.851709944214,-28079.446027212864,-34888.36853365523,-38394.23965147015,-38727.347699087586,-28961.49056690819,-38241.04079497347
14213.541354363128,5168.773850056392,-28003.472447809276,-34804.8177128813,-38401.92865156277,-38651.284712706176,-28910.52858955009,-38177.76300642049
14304.02121591821,5146.690326534549,-28023.00787246321,-34851.3763965817,-38162.16148879069,-38684.52175671122,-28804.357803387382,-38147.252875239
14414.818813183167,5095.750700920904,-28097.37212626602,-34937.60942669027,-38123.4482673941,-38765.792699550715,-28840.813498593987,-38201.14293112075
14330.84330926458,5103.104424846701,-28108.36918453803,-34905.0876385078,-38366.90346800131,-38744.22326615134,-28957.891936050888,-38240.839629273374
14229.209927226297,5170.271416934898,-27997.16925587288,-34794.20063426503,-38416.77020988109,-38642.99221551326,-28918.39640359836,-38173.78439590745
14285.893951164957,5157.866198762203,-28005.886436210447,-34823.48141950148,-38192.112826360804,-38658.59373314306,-28805.028355721042,-38133.663014610174
14408.403862524494,5098.857593400192,-28091.381858751996,-34921.42676370463,-38102.5940898173,-38751.1970104214,-28818.41705064977,-38187.55307049192
14364.192111991897,5108.379436538153,-28084.13989354848,-34900.25966170546,-38311.4934934966,-38744.2456178958,-28929.460517103736,-38227.89796923375
14240.318744220585,5169.645568090149,-27997.21395936179,-34798.53687268935,-38425.532093707574,-38649.116593494015,-28924.185505412283,-38177.159509320205
14262.894006120445,5168.706794823026,-27984.83109293355,-34807.00818383791,-38228.970852967606,-38649.83184931658,-28808.98461448963,-38127.11395348477
14388.622568681547,5106.859517915192,-28078.641364412473,-34917.559911913864,-38091.70879026756,-38748.22422840884,-28796.244120150106,-38177.94182037614
14380.978272077833,5097.203564310499,-28111.766649695237,-34934.59194118881,-38278.927001825214,-38772.34176067612,-28913.38961284037,-38247.72396656561
14244.878500089468,5148.880797491169,-28030.473355111284,-34838.85941968673,-38445.35809103943,-38683.76179739974,-28939.38469164189,-38211.51414054801
14240.430502942861,5168.125649467189,-27983.266470821676,-34808.572805949785,-38281.92213558223,-38654.637474374475,-28824.27320769706,-38150.27036074047
14377.51375168726,5119.532957021351,-28054.121500745,-34902.1372082397,-38089.697133266585,-38735.014347435754,-28772.03718090501,-38167.861183626796
14398.23381879733,5095.05779684279,-28102.93771063539,-34946.68423493913,-38227.09330643336,-38781.52832764725,-28875.324592032983,-38239.94555949516
14266.58204395557,5147.964375968501,-28047.237163452766,-34858.5289548074,-38437.24440780216,-38706.76174244425,-28931.807450271543,-38232.25655940254
14233.81438658409,5193.517231168417,-27973.699924194807,-34792.4124947086,-38317.37200228834,-38643.01456725771,-28822.507419885093,-38152.25966599699
14364.393277691994,5155.54161733885,-28026.49474459824,-34877.19266142758,-38090.52414781143,-38711.835588435606,-28746.7350061816,-38158.11582304428
14414.528240505248,5114.01207614089,-28104.32351879162,-34942.102127325794,-38180.78049192196,-38779.069635757165,-28838.08658577044,-38241.9795682406
14298.366224571017,5155.273396405387,-28050.522869887696,-34859.13245190769,-38410.77994236707,-38711.34385005759,-28916.58591229748,-38250.18265845569
14230.19340398233,5196.624123647705,-27977.142092840924,-34793.753599375916,-38353.51477307257,-38638.87949453348,-28836.79018459203,-38179.17116632118
14341.616850092036,5164.281149420875,-28013.64249153644,-34858.86423097423,-38114.61932833425,-38688.90269862446,-28739.224820044616,-38162.42970972416
14428.162804622985,5119.15297736561,-28089.70547791785,-34936.022452833946,-38130.71258434207,-38761.34470240411,-28797.339355628417,-38230.356661123835
14325.210669661841,5136.609689785206,-28062.995143293756,-34888.256774932954,-38374.32424716047,-38720.776286217726,-28903.86776970241,-38264.66658886273
14229.142871992932,5184.665940364116,-27985.903976667403,-34804.05775356982,-38385.74598857713,-38638.05247998863,-28853.553992933514,-38202.72990497707
14317.946352713867,5162.090678464256,-27997.705697739806,-34849.387091325174,-38146.98465430554,-38668.09322453657,-28747.293799792984,-38173.62793369626
14431.582621524647,5115.889622675136,-28082.865844114527,-34938.05646157938,-38099.978935716026,-38747.397213863995,-28776.395771073792,-38233.32944313639
14357.151312488475,5128.674820503571,-28083.156416792444,-34908.46275192055,-38337.1979996202,-38719.859864695056,-28886.455760771725,-38258.184582970694
14239.402322697917,5185.157678742133,-27992.02835464816,-34804.661250670106,-38409.058858044016,-38624.015584470704,-28862.27117327108,-38189.45296877062
14300.690805994369,5184.241257219464,-27980.986592887235,-34820.97802412248,-38178.36650352079,-38627.90478800592,-28745.907991636755,-38145.08475602684
14415.668179472468,5114.369704052175,-28072.65109689845,-34938.01175809047,-38078.90124069467,-38723.03381240771,-28758.7378929541,-38202.50638753252
14369.601234150081,5111.531032506351,-28097.506236732752,-34934.18960978861,-38298.373019501334,-38734.81318173566,-28883.90766190382,-38268.06405401994
14242.263345988196,5173.892399536658,-28011.854351980015,-34834.03144288438,-38420.27943376058,-38644.13215448048,-28888.713286961713,-38225.08164943238
14271.432372502373,5190.11976601121,-27979.176101586356,-34822.29677704535,-38215.4703993166,-38623.680308303876,-28768.79617795899,-38163.30142775791
14392.42236523895,5120.181157610555,-28083.201120281356,-34937.38590924572,-38077.13545288271,-38724.59843451958,-28761.688323222203,-38212.72113474859
14387.862609370068,5105.585468481239,-28105.821085670126,-34958.21773507807,-38255.12239398032,-38748.69361504241,-28877.313897289503,-38276.80358610196
14254.176825782875,5161.621291830694,-28031.25566616722,-34855.42206232811,-38426.582625696974,-38659.44309943236,-28912.29437736206,-38247.32163516541
14240.430502942861,5178.250989705442,-27993.660031993393,-34825.917759647105,-38267.840536575386,-38621.6686513029,-28801.876759752842,-38177.427730253665
14367.65663238247,5121.254041344409,-28068.985410807778,-34924.95833932857,-38085.62911577572,-38706.314707555146,-28761.263640077552,-38201.18763460966
14407.33097879064,5104.5796399807505,-28100.031983856203,-34955.08849085432,-38205.814445711905,-38743.1950859064,-28856.50442320161,-38262.07378650591
14270.15832306842,5143.315213121798,-28048.622971608995,-34878.51141435044,-38417.440762214756,-38675.335189740086,-28916.72002276421,-38255.05533874695
14230.215755726786,5181.044957762356,-27990.709601725295,-34811.52323621789,-38319.80834243397,-38616.036011700155,-28823.580303618946,-38181.94278263364
14356.927795043923,5135.939137451546,-28035.681311569373,-34895.47638839202,-38089.138339655205,-38683.53827995519,-28748.277276549015,-38172.48799472905
14416.383435295038,5094.007264853391,-28105.306995547653,-34963.87272642526,-38166.4083202372,-38750.414699365465,-28837.19251599223,-38250.205010200145
14303.752994984747,5135.737971751449,-28051.819271066102,-34884.05464697536,-38395.55840439301,-38686.08637882309,-28918.39640359836,-38253.02133000152
14224.694874846326,5175.747594326448,-27984.02643013316,-34808.2151780385,-38350.944322460215,-38614.78431401066,-28846.490841685634,-38181.98748612255
14325.07655919511,5136.944965952035,-28030.898038255935,-34874.62221081522,-38116.07219172385,-38667.489727436274,-28756.01098013055,-38169.112881316294
14408.917952646965,5088.218163039465,-28116.080536375113,-34963.17982234715,-38137.01577627847,-38748.06776619766,-28820.160486717283,-38242.024271729504
14315.353550357051,5115.219070341476,-28081.189463280378,-34900.796103572386,-38373.72075006017,-38706.00178313277,-28918.306996620537,-38270.410987187744
14213.38489215194,5164.325852909787,-27989.72612496926,-34811.74675366244,-38381.07447398597,-38616.99713671173,-28862.874670371377,-38193.63274498376
14295.326387325096,5147.6067480572165,-28008.568645545085,-34855.44441407257,-38146.26939848297,-38643.41689865791,-28753.619343473834,-38147.40933745019
14406.66042645698,5091.302703774298,-28096.99214661028,-34943.55499071538,-38097.252022892484,-38735.461382324866,-28789.98563170262,-38215.045716171946
14339.716951813336,5102.858555657692,-28086.129198805,-34914.36361245676,-38326.2456448371,-38715.47892278182,-28900.33619407847,-38258.92219053772
14222.370293422973,5161.129553452677,-27990.888415680936,-34819.70397468853,-38401.79454109604,-38627.48010486127,-28878.85616765692,-38207.69199224615
14279.479000506282,5164.057631976322,-27991.737781970238,-34831.75156494994,-38181.51809948899,-38633.62683458648,-28762.940020911698,-38153.1537357752
14397.719728674858,5099.617552711672,-28086.106847060546,-34938.23527553502,-38089.31715361085,-38727.86178921006,-28777.446303063192,-38204.9650794226
14363.163931746953,5105.160785336589,-28086.732695905295,-34925.58418817332,-38295.17672004423,-38730.32048110014,-28890.032039884572,-38258.184582970694
14236.451892429817,5165.935178510568,-28007.1604856444,-34828.912893404115,-38412.74689587914,-38638.5218666222,-28889.227377084182,-38209.50248354703
14243.157415766409,5164.191742443054,-27990.97782265876,-34838.3229778198,-38238.671510061205,-38635.8173055431,-28785.8952624673,-38158.83107886685
14384.755716890779,5116.9625064089905,-28064.425654938896,-34929.04870856389,-38071.86044119125,-38725.447800808884,-28761.263640077552,-38195.4655880291
14381.872341856044,5103.998494624912,-28103.585911224596,-34941.83390639233,-38239.96791123962,-38744.71500452936,-28867.747350662634,-38255.50237363605
14247.650116401926,5150.467771347496,-28027.12059344299,-34844.648521500654,-38421.66524191681,-38658.70549186534,-28906.66173775932,-38225.260463388026
14225.857165558002,5152.278262648376,-27979.578432986553,-34812.59611995174,-38282.927964082715,-38625.066116460104,-28803.799009776,-38161.625046923764
14357.196015977386,5109.362913294186,-28052.04278851066,-34903.94769954058,-38076.77782497142,-38702.76078018675,-28751.160651583752,-38179.72995993256
14378.385469721017,5080.372700735653,-28104.010594369247,-34952.69685419761,-38210.79888472544,-38747.95600747538,-28855.409187723304,-38248.55098111046
14239.067046531089,5114.34735230772,-28049.56174487612,-34872.58820206978,-38423.855712873425,-38675.58105892909,-28921.5256478221,-38241.21960892911
14190.384947107428,5149.707812036016,-27980.003116131204,-34787.58451790625,-38311.8958248968,-38610.29161337514,-28819.31112042798,-38155.634779409746
14292.666529734914,5085.5583054492845,-28025.578323075573,-34873.459920103545,-38089.29480186639,-38678.84441361957,-28747.852593404365,-38152.326721230354
14328.563431330138,5020.514729084341,-28108.905626404958,-34952.13806058622,-38167.39179699324,-38750.280588898735,-28840.187649749238,-38232.48007684709
14228.785244081646,5070.537933175317,-28068.851300341048,-34858.9312862076,-38398.57588989448,-38679.85024212006,-28911.86969421741,-38230.31195763492
14121.832146863002,5080.730328646938,-27977.58912773003,-34793.99946856493,-38344.21644737917,-38612.16915990939,-28832.766870590076,-38160.730977145555
14164.099295627988,4992.9326764264915,-28026.3159306426,-34874.06341720383,-38120.27431968145,-38669.099053037055,-28748.903125393765,-38149.13042177325
14203.684235058337,4896.596657824119,-28143.03674018821,-34971.941706173624,-38147.92342757266,-38760.02594948125,-28821.143963473318,-38229.55199832344
14064.634032801872,4885.532544318741,-28140.980379698325,-34934.79310688891,-38391.73625609115,-38727.88414095451,-28933.975569483708,-38269.31575170944
13964.118237986355,4947.379821226576,-28001.86312220849,-34819.614567710705,-38394.23965147015,-38614.33727912155,-28862.539394204545,-38175.63959069724
14025.786700938548,4909.270096930278,-28009.105087412012,-34856.89727746216,-38148.839849095326,-38641.628759101484,-28748.925477138222,-38136.72520360055
14099.748623341158,4822.947659843881,-28127.90460919197,-34966.37612180426,-38122.5989011048,-38745.34085337411,-28800.759172530077,-38213.21287312661
14020.668151458283,4819.885470853505,-28134.341911595096,-34934.703699911086,-38352.03955793852,-38727.57121653214,-28911.512066306124,-38250.94261776717
13903.768527957027,4881.7550995057945,-28035.949532502837,-34827.661195714616,-38424.705079162726,-38625.24493041574,-28882.499502003135,-38174.18672730765
13950.796598290992,4880.034015182736,-28020.459773595307,-34846.57077152381,-38208.831931213375,-38634.74442180925,-28771.5901460159,-38129.86321805277
14064.812846757513,4806.250906735767,-28119.1874288544,-34958.329493800346,-38100.02363920494,-38734.053222424176,-28777.714523996656,-38186.256669313516
14020.668151458283,4795.834993819594,-28152.782100770724,-34958.86593566727,-38318.57899648893,-38745.34085337411,-28901.498484790147,-38249.89208577777
13899.253475577054,4867.941721432415,-28083.961079592835,-34861.74760600896,-38466.54754478306,-38655.66565461941,-28917.94936870925,-38215.71626850561
13922.767510744037,4879.698739015906,-28052.802747822137,-34864.67568453261,-38280.29045823699,-38641.38288991248,-28802.88258825333,-38157.48997419953
14074.915835251313,4838.973860618336,-28129.13395513701,-34949.947589629606,-38104.87396775174,-38717.57998676062,-28761.822433688933,-38179.55114597692
14094.048928505055,4839.309136785167,-28144.310789622163,-34964.94561015911,-38267.125280752814,-38744.58089406263,-28868.306144274015,-38243.365376396825
13964.274700197542,4893.981503722847,-28070.79590210866,-34862.060530431336,-38446.095698606456,-38657.74436685376,-28905.499447047645,-38216.3197656059
13950.371915146341,4919.551899379719,-28025.01952946419,-34832.37741379469,-38304.810321904464,-38624.440267615355,-28802.100277197394,-38149.197477006615
14103.190791987276,4884.102032673602,-28091.873597130016,-34932.312063254365,-38101.43179910562,-38701.71024819735,-28748.813718415942,-38158.428747466656
14149.838882665503,4868.008776665781,-28152.983266470823,-34979.38483707725,-38231.72011753561,-38755.510897101274,-28851.89996384382,-38233.59766406985
14041.92466043528,4935.667507131995,-28074.372181221508,-34882.71354230804,-38433.55636996703,-38672.76473912773,-28901.565540023512,-38218.77845749599
14006.810069895992,4982.4273565324975,-28002.93600594235,-34820.75450667793,-38335.72278448615,-38615.8124942556,-28811.17508544625,-38147.655206639196
14136.51724297014,4947.178655526478,-28068.292506729664,-34911.21201648856,-38119.000270247496,-38690.55672771415,-28745.706825936657,-38156.48414569905
14208.154583949397,4910.030056241758,-28143.28260937722,-34980.614183022284,-38183.84268091234,-38762.10466171559,-28828.8553153104,-38235.05052745945
14110.656274635348,4960.053260332735,-28091.56067270764,-34901.15373148367,-38411.45049470073,-38694.26711729373,-28905.63355751438,-38235.251693159546
14041.522329035084,5017.541947071784,-28016.727032271272,-34824.375489279686,-38380.1580524633,-38618.7182210348,-28834.644417124324,-38163.12261380227
14144.429760507317,4987.925885668503,-28048.779433820182,-34891.72129532353,-38147.76696536147,-38676.430425218394,-28749.864250405342,-38152.55023867491
14248.097151291031,4944.988184569858,-28128.642216758995,-34974.467453297075,-38142.80487809239,-38753.58864707812,-28802.793181275512,-38212.49761730404
14167.988499163212,4979.074594864202,-28108.70446070486,-34920.8903218377,-38384.91897403228,-38715.63538499301,-28908.226359871194,-38241.51018160703
14074.535855595572,5042.866473539648,-28033.423785379386,-34833.00326263944,-38416.658451158815,-38631.48106711877,-28866.585059950958,-38182.4121692672
14172.391792820907,5043.537025873306,-28020.72799452877,-34855.91380070613,-38175.77370116398,-38649.22835221629,-28750.378340527815,-38139.13919200173
14297.092175137064,4995.9278101835025,-28105.575216481117,-34952.98742687552,-38106.63975556371,-38735.036699180215,-28776.37341932934,-38190.25763157101
14235.647229629425,5008.131862656101,-28116.013481141745,-34936.73770865652,-38343.56824678997,-38729.515818299755,-28897.162246365817,-38244.63942583078
14120.781614873602,5072.638997154117,-28029.288712655154,-34823.101439845734,-38433.80223915604,-38632.79982004164,-28876.33042053347,-38178.59002096534
14173.554083532583,5072.929569832036,-28012.256683380212,-34838.345329564254,-38215.00101268304,-38635.772602054196,-28759.36374179885,-38125.39286916171
14313.408948589438,5021.632316307106,-28094.622861698015,-34938.23527553502,-38098.570775815344,-38729.40405957747,-28758.44732027618,-38176.91364013119
14287.033890132177,5020.067694195234,-28119.99209165479,-34938.39173774621,-38300.00469684657,-38737.405984092475,-28871.793016409043,-38227.562693066924
14155.583280990515,5080.775032135848,-28040.218715693798,-34840.26757958741,-38448.66614921882,-38652.55876214013,-28890.00968814012,-38186.4131315247
14178.471467312751,5097.784709666337,-27987.960337157292,-34826.968291636505,-38256.79877481446,-38635.83965728756,-28779.45796006417,-38129.14796223021
14317.275800380206,5046.867435797148,-28078.79782662366,-34925.27126375095,-38090.054761177875,-38723.1902746189,-28751.808852172955,-38162.049730068415
14322.483756838294,5032.629374579117,-28124.864771946046,-34942.727976170536,-38258.49750739307,-38752.98514997782,-28862.181766293263,-38227.16036166673
14193.625950053449,5091.012131096379,-28051.662808854915,-34851.8234314708,-38450.09666086396,-38672.183593771886,-28904.761839480623,-38205.27800384498
14182.114801658965,5124.092712890233,-27995.984613416746,-34808.90808211661,-38306.17377831624,-38626.742497294246,-28801.340317885915,-38132.008985520486
14323.199012660863,5081.110308302678,-28050.74638733225,-34890.782522056405,-38088.66895302164,-38698.44689350687,-28735.983817098597,-38138.26747396797
14360.012335778754,5048.208540464466,-28108.99503338278,-34944.2478947935,-38206.70851549012,-38752.38165287753,-28835.31496945798,-38214.37516383829
14230.305162704608,5089.693378173516,-28053.965038533814,-34865.01096069944,-38424.83918962946,-38686.376951501006,-28903.465438302213,-38218.331422606876
14173.598787021494,5124.20447161251,-28002.220750119777,-34806.5164454599,-38343.79176423452,-38627.63656707246,-28820.56281811748,-38148.415165950675
14305.652893263448,5093.940209620025,-28029.914561499903,-34876.67857130511,-38104.60574681828,-38681.01253283174,-28731.647578674267,-38126.57751161784
14376.910254586966,5052.187150977511,-28107.76568743774,-34951.959246630584,-38159.92631434516,-38751.75580403278,-28813.94670175871,-38202.17111136569
14272.460552747316,5098.72348293346,-28066.906698573435,-34880.32190565132,-38403.02388704108,-38701.687896452895,-28908.315766849017,-38225.28281513248
14191.301368630096,5147.1150096792,-27980.986592887235,-34796.72638138847,-38380.78390130805,-38630.095258962545,-28848.390739964336,-38163.74846264702
14290.140782611465,5113.833262185248,-28031.68034931187,-34864.07218743231,-38148.03518629494,-38678.620896175016,-28756.614477230847,-38144.436555437635
14392.131792561031,5070.068546541756,-28113.398327040475,-34944.560819215876,-38148.66103513969,-38753.990978478316,-28809.632815078836,-38203.19929161064
14312.02314043321,5107.507718504396,-28063.665695627416,-34879.94192599558,-38359.63915105333,-38708.57223374513,-28899.844455700455,-38223.74054476506
14203.505421102695,5156.301576650331,-27978.080866108045,-34785.37169520518,-38401.906299818314,-38626.29546240514,-28863.72403666068,-38163.88257311375
14272.68407019187,5136.676745018572,-27999.426782062863,-34827.95176839254,-38167.03416908195,-38652.201134228846,-28756.234497575108,-38127.73980232952
14387.795554136701,5079.188058279522,-28091.113637818533,-34926.366499229254,-38103.48815959551,-38742.21160915036,-28784.35299209988,-38187.10603560282
14327.401140618462,5089.067529328768,-28097.46153324384,-34906.47344666403,-38342.562418289475,-38734.50025731329,-28903.912473191318,-38244.61707408632
14212.66963632937,5161.420126130596,-27991.62602324796,-34795.295869743335,-38418.491294204156,-38636.46550613231,-28883.19240608125,-38191.4646257716
14261.038811330654,5162.001271486434,-27980.226633575756,-34803.186035536055,-38195.64440198474,-38628.150657194936,-28761.196584844183,-38118.419124891654
14388.80138263719,5101.360988779186,-28071.198233508854,-34903.590071629296,-38084.42212157513,-38717.356469316066,-28762.671799978234,-38156.37238697677
14353.016239764243,5085.223029282454,-28100.680184445406,-34915.57060665734,-38294.50616771056,-38737.38363234802,-28885.159359593315,-38224.81342849892
14230.461624915795,5153.038221959856,-28008.45688682281,-34804.03540182536,-38431.00827109913,-38638.119535222,-28892.356621307925,-38182.07689310037
14238.843529086535,5162.448306375541,-27978.416142274877,-34794.26768949839,-38247.50044912106,-38618.80762801262,-28782.766018243554,-38124.364688916765
14373.60219640758,5108.848823171714,-28063.710399116328,-34895.36462966974,-38087.171386143134,-38708.99691688978,-28755.720407452634,-38163.07791031336
14380.46418195536,5088.642846184117,-28103.630614713507,-34918.610443903264,-38250.361472411336,-38744.111507429065,-28864.841623883443,-38229.64140530126
14253.170997282386,5146.466809089996,-28038.27411392619,-34816.88765488716,-38436.998538613145,-38654.011625529725,-28905.29828134755,-38189.810596681906
14228.472319659271,5173.378309414185,-27968.82724390355,-34777.43682592354,-38299.13297881281,-38608.2129011408,-28796.847617250398,-38113.032354477924
14359.788818334202,5130.485311804451,-28038.78820404866,-34870.509489835444,-38089.02658093293,-38686.10873056755,-28735.40267174276,-38128.87974129674
14387.70614715888,5082.183192036533,-28115.99112939729,-34935.48601096702,-38210.39655332524,-38753.0969087001,-28842.623989894866,-38210.016573669505
14273.44402950335,5140.0295066868675,-28043.102090728535,-34841.362815065724,-38422.02286982809,-38677.61506767453,-28906.52762729259,-38202.394628810245
14224.694874846326,5184.732995597482,-27973.029371861147,-34769.97134327547,-38335.231046108136,-38607.87762497397,-28808.716393556166,-38115.46869462355
14338.353495401561,5139.068381675289,-28013.866008980993,-34856.45024257305,-38112.428857377636,-38677.54801244116,-28732.34048275238,-38115.02165973445
14412.76245269328,5100.511622489885,-28096.500408232263,-34931.28388300942,-38167.63766618224,-38752.56046683317,-28808.02348947805,-38191.84460542734
14303.730643240291,5133.726314750471,-28053.2721344557,-34861.43468158659,-38393.0103055251,-38700.346791785574,-28897.922205677296,-38204.29452708895
14213.250781685208,5178.474507149996,-27981.12070335397,-34777.392122434634,-38380.090997229934,-38626.13900019396,-28840.500574171612,-38138.93802630163
14302.635407761982,5145.908015478613,-28020.12449742848,-34838.904123175635,-38146.89524732772,-38674.75404438425,-28744.812756158444,-38123.15769471618
14408.359159035583,5098.947000378013,-28090.823065140616,-34927.1935137741,-38132.79129657642,-38757.746071546804,-28794.947718971696,-38193.47628277258
14326.663533051436,5126.305535591309,-28073.388704465477,-34873.90695499265,-38370.50209885861,-38722.25150135178,-28898.391592310858,-38221.259501130524
