Fp1,Fp2,C3,C4,P7,P8,O1,O2
14188.149772661898,5421.661486823737,-28826.396623420314,-35539.36309091605,-38012.2706904734,-39691.91487931191,-28999.22031154875,-38785.39517943802
14147.827225664525,5420.163919945231,-28835.00204503561,-35530.31063441165,-38226.2215883996,-39685.43287341987,-29117.349280995048,-38843.956749910925
14043.556337780517,5506.419301798261,-28723.131564036797,-35397.72008630277,-38338.67321475425,-39568.488546429704,-29103.24533024375,-38776.23096421134
14075.139352695865,5519.0480374155095,-28697.00237476854,-35395.171987434864,-38137.19459023412,-39553.244656711184,-28978.00850606066,-38704.10188485407
14190.608464551982,5445.242577224085,-28800.356841129884,-35522.66633780794,-37994.63516409817,-39673.60880060301,-28970.341857712494,-38765.39036815052
14180.37136559145,5428.434065393694,-28834.979693291152,-35547.70029159788,-38179.21586981009,-39703.44837945085,-29089.47665565928,-38838.45822077492
14072.568902083505,5513.102473390398,-28727.89248560578,-35421.122362747476,-38336.750964731094,-39583.95595359278,-29098.886740074962,-38779.15904273499
14062.622375800895,5536.0130114570875,-28683.457217628627,-35383.996115207214,-38176.95834362011,-39540.034775738095,-28978.522596183135,-38704.817140676634
14174.381098077429,5463.660414655258,-28773.93707918371,-35504.114389910035,-37989.89659427364,-39645.22208514477,-28940.63638933139,-38744.31267312916
14197.38104312194,5430.043390994477,-28829.302350199505,-35553.75761434527,-38123.470619138556,-39703.6718968954,-29051.679855785354,-38828.75756368131
14085.331748167486,5495.735167948624,-28744.768052669533,-35446.916275848904,-38322.51290351307,-39603.98311662473,-29099.981975553274,-38803.94712733592
14050.731247750671,5541.846816759922,-28677.466950114605,-35386.99124896422,-38210.441256814156,-39535.72088905822,-28991.196035289293,-38718.116428627545
14157.930214158323,5482.592342208904,-28757.173270842228,-35492.08915139308,-37996.915042032604,-39631.78868672713,-28926.845363002463,-38738.81414399316
14199.303293145096,5423.807254291446,-28845.082681784952,-35584.82653913814,-38086.81375823185,-39712.992574333264,-29030.602160764,-38838.72644170838
14102.296722209065,5480.223057296641,-28783.101294410386,-35484.89188967847,-38317.55081624399,-39631.207541371296,-29108.207417512825,-38834.27844456177
14049.63601227236,5545.311337150495,-28692.73319157758,-35387.080655942045,-38254.80946955794,-39532.122258200914,-29006.77520117464,-38731.48277181182
14142.37340001743,5492.762385936068,-28748.679607949212,-35473.51485175072,-38024.16181852363,-39601.904404390385,-28918.19523789826,-38729.225245621834
14214.144851463421,5425.327172914407,-28849.37421672037,-35583.28426877073,-38047.8323159018,-39704.43185620688,-28991.710125411766,-38821.53795022225
14129.901126611368,5461.55935067646,-28814.080812225442,-35526.9355209989,-38293.23211827661,-39661.404748130415,-29100.406658697924,-38855.132622138575
14053.25699487412,5535.990659712632,-28706.68068011769,-35409.38769690844,-38291.175757786725,-39552.10471774396,-29029.015186907673,-38762.86462102707
14122.905030596858,5502.194822096208,-28739.470689233625,-35466.719921436306,-38055.923647394615,-39585.29705826009,-28923.58200831199,-38734.612016035564
14222.169127722875,5432.591489862381,-28837.147812503317,-35588.91690837347,-38013.85766432973,-39689.45618742183,-28967.905517566865,-38812.48549371785
14162.847597938491,5455.3008622289735,-28817.008890749086,-35540.03364324971,-38241.93486475168,-39663.349349898024,-29079.55248112112,-38853.1209651376
14055.894500719847,5525.485339818638,-28715.666081388725,-35426.59854013903,-38313.84042666441,-39564.80050859458,-29050.897544729418,-38787.78681609474
14095.41238491683,5500.250220328596,-28726.372566982816,-35467.79280517016,-38097.028505447925,-39587.867508872456,-28940.97166549822,-38746.92782723044
14205.606485081493,5423.159053702242,-28830.151716488806,-35595.8012456657,-38002.1229984907,-39697.10048402554,-28963.189299486796,-38821.7614676668
14173.867007954957,5425.394228147773,-28837.974827048165,-35578.12101580155,-38213.27992835998,-39685.63403911996,-29081.65354509992,-38877.1267386826
14056.430942586774,5499.959647650677,-28739.425985744714,-35461.802537656135,-38343.36708108987,-39580.82670936903,-29084.000478267728,-38818.498112976326
14085.376451656397,5515.1141303913755,-28708.35706095184,-35453.39828174094,-38141.73199435854,-39560.39721493688,-28959.188337229294,-38746.52549583024
14204.600656581004,5439.989917277088,-28811.040974979518,-35577.4951669568,-37994.277536186884,-39673.31822792509,-28946.626656845412,-38795.58757490964
14191.99427270821,5412.1619954302305,-28853.37517897787,-35597.2541090553,-38182.30041054492,-39707.29287949716,-29078.300783431627,-38877.66318054953
14081.800172543548,5491.890667902311,-28750.64656146128,-35476.487633763274,-38347.12217415836,-39594.08129383103,-29103.491199432756,-38832.35619453862
14078.514466108618,5530.872110232367,-28693.91783403371,-35428.76665935119,-38183.61916346779,-39535.89970301386,-28978.50024443868,-38744.08915568461
14191.346072119008,5463.861580355356,-28778.02744841903,-35539.18427696041,-37984.91215526011,-39637.73425075224,-28928.141764180873,-38767.08910072912
14219.486918388238,5435.519568386027,-28835.829059580454,-35597.11999858856,-38114.5969765898,-39694.50768166872,-29039.811079479587,-38851.35517732563
14103.257847220642,5495.377540037339,-28760.59308774389,-35488.579927513594,-38327.96672916016,-39604.072523602554,-29101.792466854153,-38828.24347355884
14063.784666512569,5539.522235336571,-28690.341554920862,-35422.61992962598,-38221.28185287498,-39542.40406065036,-28993.45356147928,-38736.847190481094
14165.99919390669,5473.450478726683,-28771.858366949367,-35529.46126812235,-38005.54281539236,-39629.28529134814,-28931.71804329372,-38755.26502791227
14211.932028762345,5410.1056349403425,-28856.19149877924,-35606.172455092965,-38087.73017975452,-39708.81279812012,-29036.97240793376,-38848.78472671327
14120.379283473407,5468.801315879979,-28789.225672391138,-35506.21545388883,-38312.991060375105,-39621.618642999965,-29115.76230713872,-38843.75558421083
14053.301698363031,5527.117017163875,-28705.987776039576,-35424.475124415774,-38267.95229529766,-39536.52555185861,-29029.864553196974,-38753.32042614465
14142.820434906536,5482.3017695309845,-28759.520204010038,-35503.39913408746,-38038.53399020839,-39603.98311662473,-28941.44105213178,-38745.787888263214
14223.174956223364,5416.028847220999,-28851.63174291036,-35597.11999858856,-38057.91295265114,-39695.602917147036,-29017.302872813092,-38831.59623522714
14138.193623804287,5449.645870881781,-28811.488009868626,-35528.857771022056,-38291.24281302009,-39647.211390401295,-29119.271531018203,-38848.717671479906
14048.49607330514,5516.544642036515,-28714.213217999128,-35425.99504303873,-38306.73257192762,-39549.10958398695,-29064.777978036163,-38769.16781296347
14118.41232996134,5485.431013754727,-28742.711692179644,-35480.06391287612,-38075.54847902638,-39589.34272400651,-28959.836537818497,-38744.22326615134
14217.67642708736,5411.379684374295,-28845.172088762774,-35598.01406836678,-38027.93926333657,-39700.63205964948,-29003.623605206445,-38822.02968860027
14151.17998733282,5416.922916999211,-28839.628856137857,-35569.09091104161,-38263.25842896204,-39686.32694319808,-29124.703004920844,-38866.91199146652
14054.39693384134,5496.539830749015,-28728.49598270607,-35446.15631653742,-38333.44290655171,-39556.038624768094,-29088.671992858886,-38789.709066117895
14104.93422805479,5498.864412172367,-28722.68452914769,-35458.78505215467,-38106.30447939688,-39568.10856677396,-28964.77627334312,-38736.53426605872
14216.24591544222,5423.561385102437,-28825.52490538656,-35575.483509955826,-37998.43496065557,-39686.28223970917,-28973.940488569795,-38798.090970288635
14176.951548689789,5410.26209715153,-28847.04963529702,-35581.22790828084,-38212.92230044869,-39688.584469388064,-29100.33960346456,-38862.35223559764
14062.39885835634,5487.263856800063,-28742.152898568263,-35465.60233421354,-38341.713052000174,-39575.08231104402,-29099.825513342086,-38807.56810993768
14080.324957409497,5503.312409318974,-28712.06745053142,-35446.715110148805,-38147.990482806024,-39550.87537179892,-28973.269936236138,-38734.544960802195
14192.821287253057,5427.78586480449,-28813.65612908079,-35571.080216298134,-37995.50688213192,-39664.399881887424,-28960.507090152158,-38782.087121258635
14190.51905757416,5407.915163983723,-28855.56564993449,-35596.13652183253,-38167.995294093525,-39698.240422992756,-29084.447513156836,-38857.993645428855
14078.31330040852,5485.833345154923,-28757.06151211995,-35478.029904130686,-38341.04249966652,-39587.26401177216,-29111.38136522548,-38811.792589639736
14065.125771179888,5515.739979236124,-28706.85949407333,-35435.09220303204,-38193.588041494855,-39544.16984846233,-28997.007488847674,-38736.40015559199
14185.37815634944,5450.003498793066,-28789.6950590247,-35543.31934968464,-37993.5175768754,-39642.741041510235,-28947.16309871234,-38765.61388559507
14204.734767047736,5399.153280157242,-28860.259516270104,-35612.16272260698,-38121.570720859854,-39714.110161556026,-29062.296934401627,-38851.37752907009
14091.344367425963,5461.514647187549,-28785.22471013364,-35498.861729963035,-38341.42247932225,-39621.618642999965,-29131.296769535158,-38834.05492711722
14062.39885835634,5522.803130484001,-28697.561168379925,-35417.25551095671,-38231.80952451343,-39535.09504021348,-29015.671195467854,-38734.45555382437
14171.56477827606,5465.0462228114875,-28765.51047152406,-35513.43506734789,-38006.25807121493,-39612.186206839826,-28939.272932919615,-38740.08819342711
14220.24687769972,5401.276695880496,-28856.90675460181,-35600.53981549023,-38085.38324658671,-39702.46490269481,-29043.208544636793,-38833.674947461484
14119.485213695196,5450.294071470985,-28800.312137640973,-35517.41367786094,-38320.881226167825,-39635.946111195815,-29133.598999214057,-38843.800287699734
14057.436771087263,5518.690409504225,-28707.53004640699,-35417.702545845816,-38280.51397568154,-39539.140705959886,-29048.528259817158,-38752.67222555545
14149.458903009761,5475.708004916669,-28758.40261678727,-35499.37582008551,-38048.14524032417,-39603.089046846515,-28957.40019767287,-38738.90355097098
14238.508252919704,5415.335943142884,-28860.48303371466,-35610.776914450755,-38060.684568963596,-39717.50762671323,-29033.820811965565,-38827.88584564756
14152.65520246687,5449.042373781487,-28822.23919895163,-35541.575913617125,-38298.507129968064,-39661.09182370804,-29138.046996360663,-38850.48345929187
14049.63601227236,5507.1345576208305,-28715.219046499617,-35422.41876392588,-38312.90165339728,-39548.416679908834,-29072.93636476235,-38761.63527508203
14122.480347452207,5486.0568625994765,-28730.082956562397,-35458.516831221204,-38070.51933652393,-39567.303903973574,-28952.97455227072,-38719.70340248387
14225.611296368992,5418.487539111083,-28833.549181646013,-35575.416454722465,-38018.752696365445,-39679.88964079495,-28995.12994231343,-38796.16872026548
14181.511304558671,5453.669184883736,-28814.99723374811,-35529.975358244825,-38242.47130661861,-39649.938303224844,-29107.71567913481,-38834.68077596197
14076.838085274469,5531.497959077115,-28711.64276738677,-35412.27107194318,-38323.295214569,-39544.0357379956,-29080.312440432604,-38765.233905939334
14122.212126518742,5532.012049199588,-28709.54170340797,-35423.80457208211,-38108.18202593113,-39546.94146477478,-28960.462386663246,-38713.19904484738
14238.910584319901,5464.17450477773,-28812.829114535944,-35544.03460550721,-37998.412608911116,-39656.152088183415,-28972.465273435748,-38777.192089222925
14215.217735197275,5464.286263500007,-28829.57057113297,-35544.32517818513,-38206.28383234547,-39665.584524343554,-29096.293937718146,-38839.79932544224
14097.759318084636,5537.979964969154,-28729.233590273096,-35418.97659527977,-38343.76941249006,-39557.580895135514,-29099.04320228615,-38784.165833492974
14124.9837428312,5569.697090351235,-28689.715706076113,-35398.52474910316,-38150.940913074126,-39530.75880178915,-28972.39821820238,-38713.13198961401
14255.115599049997,5508.274496588051,-28776.17225362924,-35510.70815452435,-37977.200803423024,-39633.80034372811,-28940.97166549822,-38748.22422840884
14242.688029132847,5471.774097892535,-28830.576399633457,-35543.36405317355,-38154.852468353805,-39672.08888198005,-29067.057855970605,-38824.55543572372
14119.529917184105,5537.734095780146,-28741.59410495688,-35436.05332804362,-38345.93753170223,-39577.295133745094,-29109.436763457867,-38796.30283073221
14114.768995615124,5581.811735846011,-28676.572880336393,-35387.639449553426,-38188.04480886994,-39519.35941211694,-28981.853006106976,-38705.30887905465
14233.479110417262,5521.484377561138,-28756.92740165322,-35490.90450893695,-37984.8674517712,-39615.203692341296,-28926.510086835635,-38724.46432405285
14264.860959632511,5485.319255032451,-28823.379137918848,-35534.13278271351,-38102.839959006305,-39662.54468709764,-29034.89369569942,-38806.159950037
14155.89620541289,5548.015898229587,-28746.64559920378,-35436.92504607738,-38317.41670577726,-39580.11145354646,-29099.400830197435,-38794.78291210925
14113.629056647904,5599.2908000100615,-28665.15113891973,-35355.832917193526,-38222.310033119924,-39506.64126952187,-28997.678041181334,-38713.154341358466
14219.397511410418,5541.735058037646,-28733.41336648624,-35454.69468291935,-37994.65751584262,-39581.7431308917,-28920.43041234379,-38716.59651000459
14267.856093389522,5475.886818872312,-28827.76007983209,-35550.33779744361,-38068.172403356126,-39676.06749249309,-29020.07448912555,-38804.08123780265
14165.03806889511,5522.624316528359,-28778.183910630218,-35477.73933145277,-38310.17474057373,-39616.79066619762,-29112.722469892797,-38811.166740794986
14101.335597197485,5594.105195296431,-28679.7691797935,-35380.48689132773,-38270.45569067665,-39509.45758932324,-29025.662425239378,-38722.9891089188
14190.13907791842,5550.251072675118,-28722.751584381054,-35449.95611309482,-38027.17930402509,-39566.20866849526,-28926.219514157718,-38703.47603600932
14256.523758950683,5464.93446408921,-28834.152678746308,-35565.626390651036,-38038.62339718621,-39681.61072511801,-29002.26014879467,-38796.95103132141
14178.42676382384,5496.584534237925,-28800.26743415206,-35505.83547423309,-38275.32837096791,-39637.197808885314,-29107.693327390356,-38823.50490373432
14098.876905307401,5579.308340467017,-28686.251185685538,-35378.87756572694,-38293.835615376905,-39521.88515924039,-29047.924762716862,-38733.15915264597
14167.51911252965,5556.487209378149,-28704.132581249785,-35422.68698485935,-38056.32597879481,-39553.311711944545,-28931.069842704517,-38696.70345743936
14269.308956779118,5484.045205598499,-28808.314062155972,-35542.78290781772,-38002.19005372406,-39666.433890632856,-28971.526500168624,-38775.44865315541
14213.04961598511,5492.8964964028,-28804.246044665106,-35508.227110889806,-38231.697765791156,-39645.31149212259,-29092.47178941629,-38817.62639494257
14108.666969378826,5566.210218216207,-28695.884787545776,-35387.32652513105,-38318.98132788912,-39537.08434546999,-29071.885832772954,-38751.57699007714
14153.236347822709,5568.534799639559,-28685.088894973862,-35397.47421711376,-38097.83316824832,-39520.63346155089,-28947.051339990063,-38688.0309805907
14264.43627648786,5491.778909180035,-28793.114875926363,-35512.27277663622,-37985.58270759376,-39637.01899492968,-28962.362284941948,-38755.89087675701
14234.82021508458,5480.781850908023,-28822.261550696083,-35531.160000700955,-38198.214852597106,-39662.96937024229,-29094.75166735073,-38832.624415472084
14124.246135264175,5561.024613502576,-28716.314281977928,-35406.59372885153,-38338.80732522099,-39553.13289798891,-29101.010155798216,-38779.96370553538
14135.623173191927,5577.72136661069,-28685.15595020723,-35390.567528077074,-38155.478317198555,-39526.28845289808,-28976.868567093443,-38705.15241684347
14261.68701191986,5517.952801937199,-28774.9429076842,-35492.75970372673,-37990.27657392938,-39627.72066923627,-28949.19710745777,-38744.0444521957
14265.978546855278,5494.304656303484,-28818.79703030551,-35521.77226802972,-38150.806802607396,-39667.52912611117,-29066.99080073724,-38818.989851354345
14152.051705366577,5564.265616448595,-28727.7807268835,-35415.98146152276,-38336.9968339201,-39569.539078419104,-29111.04608905865,-38788.367961450575
14144.094484340489,5608.432663492282,-28657.19391789364,-35359.92328642884,-38186.8154629249,-39505.59073753247,-28987.910328854363,-38693.97654461581
14253.930956593867,5537.599985313414,-28747.07028234843,-35466.898735391944,-37990.29892567384,-39610.37571553895,-28940.21170618674,-38720.99980366228
14283.949349397344,5493.365883036361,-28816.539504115524,-35533.93161701341,-38105.83509276332,-39676.87215529349,-29046.4048440939,-38808.909214605
14172.503551543183,5551.793343042534,-28743.538706724492,-35432.8123250976,-38322.4458482797,-39590.46031122927,-29113.773001882197,-38796.68281038795
14125.028446320111,5603.403520989838,-28671.00729596702,-35366.00296092069,-38240.37024263981,-39524.41090636384,-29021.259131581683,-38715.47892278182
14228.29350570363,5549.289947663539,-28739.135413066797,-35458.13685156547,-38015.48934167497,-39603.42432301334,-28945.77729055611,-38723.145571129986
14280.261311562219,5486.593304466403,-28826.195457720216,-35544.41458516295,-38072.26277259145,-39679.24144020575,-29029.529277030146,-38806.562281437196
14176.728031245237,5527.295831119518,-28768.393846558793,-35445.97750258178,-38302.642202692296,-39595.2435845427,-29112.61071117052,-38800.43790345644
14102.967274542723,5589.2548667496285,-28683.30075541744,-35358.2469055947,-38281.47510069312,-39504.69666775426,-29040.79455623562,-38719.88221643952
14200.24206641222,5559.929378024266,-28723.73506113709,-35426.10680176101,-38041.730289665495,-39563.660569627355,-28939.049415475063,-38705.040658121194
14286.072765120598,5489.677845201236,-28817.143001215816,-35528.12016345503,-38030.04032731537,-39661.404748130415,-28998.97444235974,-38787.25037422781
14200.130307689942,5511.917830934266,-28794.612442804868,-35481.33796231008,-38270.969780799125,-39623.38443081194,-29111.62723441449,-38818.364002509596
14092.17138197081,5567.10428799442,-28705.272520217004,-35386.320696630566,-38320.456543023174,-39525.68495579779,-29072.735199062256,-38736.914245714455
14166.08860088451,5553.983813999154,-28712.894465076264,-35419.06600225759,-38082.09754015178,-39546.80735430805,-28950.806433058555,-38688.27684977971
14265.531511966172,5477.071461328443,-28818.908789027788,-35536.88204728151,-38018.90915857663,-39660.17540218537,-28987.999735832185,-38769.81601355267
14214.435424141338,5488.0014643670875,-28814.61725409237,-35512.58570105859,-38240.9290362512,-39642.316358365584,-29105.86048434502,-38817.69345017594
14110.477460679705,5568.557151384014,-28708.91585456322,-35384.689019285324,-38333.53231352953,-39536.480848369705,-29086.637984113455,-38751.08525169912
14145.145016329887,5567.506619394615,-28704.378450438795,-35403.39742939442,-38121.41425864867,-39530.49058085568,-28964.597459387478,-38687.56159395714
14257.462532217805,5492.695330702702,-28808.381117389337,-35525.86263726505,-37997.78676006637,-39641.98108219875,-28965.089197765494,-38744.603245807084
14238.687066875347,5488.493202745104,-28825.94958853121,-35515.714945282336,-38193.856262428315,-39652.39699511493,-29086.727391091277,-38807.523406448774
14120.401635217862,5565.271444949084,-28729.904142606752,-35391.21572866628,-38346.02693868005,-39549.15428747586,-29106.128705278483,-38762.10466171559
14124.804928875557,5577.654311377324,-28695.325993934395,-35374.29545811361,-38169.604619694306,-39525.19321741977,-28988.782046888122,-38695.09413183858
14242.844491344034,5503.08889187442,-28789.6950590247,-35496.15716888394,-38001.117169990204,-39626.312509335585,-28962.675209364323,-38740.53522831622
14249.751180380725,5472.467001970649,-28842.065196283485,-35537.46319263735,-38162.608523679795,-39667.842050533545,-29085.252175957226,-38819.481589732364
14136.718408670236,5545.356040639405,-28751.004189372565,-35427.67142387288,-38352.33013061644,-39570.656665641865,-29128.771022411707,-38788.74794110632
14127.84476612148,5595.11102379692,-28678.11515070381,-35369.33337084453,-38208.00491666853,-39512.38566784688,-29005.7470209297,-38699.49742549627
14223.420825412373,5509.973229166655,-28763.610573245358,-35467.99397087026,-38000.44661765655,-39606.26299455917,-28948.615962101932,-38718.85403619457
14251.941651337345,5452.685708127703,-28833.99621653512,-35532.99284374629,-38110.528959098934,-39673.988780258755,-29057.044274454627,-38806.65168841502
14143.89331864039,5514.868261202367,-28757.285029564504,-35437.17091526639,-38326.78208670403,-39591.73436066322,-29124.658301431933,-38795.095836531626
14103.347254198463,5585.432718447772,-28667.20749940962,-35347.87569616744,-38238.71621355012,-39493.833719948976,-29019.73921295872,-38699.51977724073
14184.059403426578,5510.040284400021,-28733.16749729723,-35439.16022052291,-38012.315393962315,-39579.77617737963,-28943.20683994375,-38706.158245343955
14231.489805160738,5439.319364943429,-28810.37042264586,-35516.43020110491,-38055.45426076106,-39651.681739292355,-29020.208599592283,-38782.60121138111
14135.042027836089,5472.84698162639,-28753.418177773736,-35432.92408381988,-38285.54311818399,-39583.6430291704,-29102.418315698902,-38783.45057767041
14035.35324756542,5511.80607221199,-28665.933449975666,-35328.65319593587,-38272.579106399906,-39496.11359788342,-29036.45831781129,-38705.890024410495
14112.824393847513,5485.743938177102,-28707.261825473528,-35401.408124137895,-38033.3260337503,-39554.02696776712,-28936.30015090706,-38684.72292241132
14168.94962417479,5389.564381785915,-28813.477315125147,-35513.882102237,-38024.34063247927,-39654.43100386036,-28996.851026636486,-38763.62458033855
14032.380465552864,5345.218520786586,-28811.51036161308,-35484.22133734481,-38280.692789637185,-39622.803285456095,-29124.300673520647,-38812.351383251116
13917.000760674568,5404.383588359784,-28706.770087095512,-35375.681266269836,-38321.12709535684,-39513.257385880635,-29075.171539207884,-38731.125143900535
13969.884988055825,5381.920085182201,-28718.795325612467,-35407.353688163006,-38089.18304314411,-39543.029909495104,-28958.942468040284,-38688.2321462908
14058.800227499036,5292.133127705232,-28824.94376003072,-35521.50404709626,-38014.59527189675,-39648.9101229799,-28986.725686398233,-38758.05899596918
13995.567142434973,5284.131203190232,-28829.548219388515,-35507.51185506724,-38240.16907693972,-39635.49907630671,-29109.19089426886,-38810.89851986153
13887.719975438116,5359.635395960259,-28722.416308214226,-35389.159368176384,-38338.650863009796,-39526.02023196462,-29086.928556791376,-38741.47400158334
13908.730615226104,5348.548930710427,-28711.888636575775,-35401.4528276268,-38125.72814532854,-39527.517798843124,-28965.335066954503,-38685.97462010082
14007.502973974106,5255.677432498626,-28820.94279777322,-35537.12791647052,-38002.3688676797,-39649.78184101365,-28974.92396532583,-38755.019158723255
13978.088078270923,5236.678449711615,-28843.294542228527,-35531.919960012434,-38194.45975952861,-39652.732271281755,-29093.052934772128,-38804.61767966958
13857.276899489987,5308.0252180129555,-28748.053759104463,-35421.256473214205,-38351.25724688259,-39555.54688639008,-29112.43189721488,-38759.57891459214
13858.707411135127,5327.895918833723,-28710.860456330833,-35396.513092102185,-38179.394683765735,-39532.770458790124,-28994.191169046306,-38695.27294579422
13962.084229240923,5237.661926467648,-28812.024451735553,-35525.05797446465,-38010.39314393916,-39643.52335256617,-28966.854985577465,-38752.0463767107
13958.530301872528,5186.632893876183,-28874.832853654963,-35581.67494316995,-38172.77856740696,-39699.13449277097,-29090.4154289264,-38833.78670618376
13847.2186144851,5259.94661568959,-28780.799064731487,-35468.39630227045,-38365.38354937834,-39593.991886853204,-29131.52028697971,-38780.120167746565
13825.179794452168,5297.251677185497,-28720.047023301962,-35414.975633022266,-38238.69386180567,-39533.10573495695,-29021.59440774851,-38694.46828299383
13937.273792895532,5228.832987407803,-28814.952530259197,-35534.33394841361,-38036.634091929685,-39640.505867064705,-28973.962840314252,-38727.81708572115
13976.501104414596,5187.124632254199,-28887.86392067241,-35599.22106256736,-38139.49681991301,-39697.34635321455,-29077.026733997674,-38814.74301990784
13883.339033524875,5254.582197020316,-28812.337376157928,-35503.22032013182,-38355.97346496266,-39616.097762119505,-29144.998388886263,-38803.321278491174
13850.1690447532,5328.074732789366,-28724.092689048375,-35415.735592333745,-38279.55285066996,-39532.43518262329,-29045.197849893317,-38708.952213400866
13965.794618820504,5291.037892226922,-28776.239308862605,-35492.64794500446,-38035.11417330673,-39596.383523509925,-28949.86765979143,-38698.55865222915
14040.002410412124,5236.253766566964,-28874.944612377243,-35592.18026306394,-38086.43377857611,-39699.71563812681,-29042.69445451432,-38797.68863888844
13949.47784536813,5279.303226387886,-28836.477260169657,-35534.22218969133,-38330.71599372816,-39651.70409103681,-29149.513441266234,-38824.220159556884
13876.097068321356,5350.24766328903,-28742.421119501727,-35434.24283674274,-38318.40018253329,-39557.42443292432,-29079.641888098944,-38741.07167018315
13962.777133319038,5328.566471167383,-28779.748532742087,-35493.54201478267,-38081.78461572941,-39606.374753281445,-28975.6392211484,-38717.959966416354
14056.140369908855,5260.460705812062,-28882.410095025316,-35606.9547661489,-38066.09369112178,-39708.00813531973,-29034.200791621304,-38800.0579238007
14003.658473927793,5296.089386473821,-28849.12834753136,-35551.52243989974,-38296.04843807798,-39666.09861446603,-29139.902191150453,-38829.58457822616
13922.476938066118,5384.06585264991,-28740.320055522927,-35433.03584254216,-38344.90935145728,-39557.245618968685,-29098.730277863775,-38749.96766447636
14005.893648373325,5395.509945811027,-28743.06932009093,-35463.25540104573,-38111.15480794368,-39574.299999988085,-28978.522596183135,-38698.22337606232
14122.457995707751,5326.711276377592,-28844.94857131822,-35565.626390651036,-38030.19678952656,-39679.4649576503,-29001.969576116753,-38762.998731493804
14078.380355641886,5323.090293775832,-28849.664789398288,-35554.47287016784,-38258.20693471515,-39684.15882398592,-29127.00523459974,-38825.427153757475
13978.579816648939,5409.479786095594,-28734.77682289801,-35423.53635114865,-38360.19794466471,-39563.459403927256,-29112.38719372597,-38761.747033804306
14017.628314212361,5419.493367611572,-28718.102421534353,-35434.01931929819,-38149.08571828434,-39561.26893297064,-28986.345706742493,-38694.490634738286
14139.020638349133,5352.05815458991,-28823.781469319045,-35559.72553011483,-38018.3727167097,-39680.493137895246,-28989.676116666335,-38757.45549886888
14125.967219587234,5341.731648651558,-28859.834833125453,-35574.56708843316,-38212.02823067048,-39708.09754229755,-29117.349280995048,-38832.19973232743
14006.58655245144,5409.993876218066,-28762.22476508913,-35463.99300861276,-38379.39809315182,-39605.01129686967,-29138.069348105117,-38790.044342284724
14026.256087572108,5450.383478448806,-28709.698165619156,-35422.798743581625,-38203.62397475529,-39556.4856596572,-29011.536122743622,-38711.14268435749
14163.495798527694,5396.739291756069,-28787.12460841234,-35526.466134365335,-38006.23571947047,-39646.83141074555,-28961.35645644146,-38734.45555382437
14172.972938176745,5351.789933656447,-28852.391702221837,-35581.87610887005,-38158.495802700025,-39704.588318418064,-29082.27939394467,-38812.574900695676
14060.431904844274,5418.219318177619,-28769.511433781558,-35471.123215094,-38361.74021503213,-39612.7002969623,-29136.86235390453,-38788.7032376174
14044.20453836972,5473.562237448959,-28699.170493980706,-35406.929005018355,-38236.88337050479,-39546.5838368635,-29024.947169416806,-38702.51491099774
14155.583280990515,5410.64207680727,-28783.280108366027,-35511.80339000266,-38030.5767691823,-39641.77991649866,-28967.525537911122,-38723.27968159672
14202.879572257945,5363.859875662312,-28853.62104816688,-35581.02674258074,-38128.16448547417,-39714.49014121177,-29069.65065832742,-38809.49035996084
14111.013902546634,5435.944251530677,-28774.78644547301,-35477.11348260802,-38347.25628462509,-39627.631262258445,-29139.72337719481,-38797.956859821905
14065.304585135531,5505.391121553317,-28681.020877483,-35384.95724021879,-38272.35558895535,-39539.67714782681,-29039.07347191256,-38707.78992268919
14166.8932636849,5463.906283844267,-28736.274389776518,-35466.02701735819,-38035.6282634292,-39611.60506148399,-28951.67815109231,-38704.37010578753
14230.886308060446,5401.321399369407,-28835.627893880355,-35571.43784420942,-38081.56109828485,-39709.215129520315,-29038.46997481227,-38787.29507771672
14141.501681983673,5443.834417323401,-28793.539559071014,-35497.85590146254,-38326.93854891522,-39647.68077703485,-29139.678673705897,-38802.33780173514
14066.31041363602,5512.52132803456,-28695.01306951202,-35388.824092009556,-38318.020202877546,-39549.55661887606,-29066.6108210815,-38718.47405653883
14153.392810033896,5486.481545744127,-28725.925532093708,-35445.932799092865,-38076.688417993595,-39591.10851181847,-28958.83070931801,-38686.376951501006
14246.130197778964,5417.124082699309,-28830.330530444448,-35559.70317837038,-38052.19090607058,-39696.5193386697,-29013.145448344407,-38766.977342006845
14173.419973065851,5430.401018905762,-28813.723184314156,-35525.572064587126,-38291.26516476455,-39670.703073823825,-29128.882781133987,-38812.50784546231
14086.717556323714,5519.003333926598,-28698.745810836055,-35397.362458391486,-38339.88020895484,-39550.62950260991,-29081.720600333287,-38725.53720778671
14146.061437852555,5509.347380321906,-28706.68068011769,-35425.97269129428,-38108.852578264785,-39569.00263655218,-28959.456558162758,-38676.92216359641
14246.24195650124,5422.913184513233,-28818.28294018304,-35550.69542535489,-38026.79932436935,-39688.53976589916,-28989.5420061996,-38753.72275754485
14208.311046160585,5427.539995615482,-28823.625007107858,-35535.04920423618,-38247.85807703234,-39685.656390864424,-29115.985824583273,-38811.412609984
14100.441527419272,5507.782758210034,-28719.465877946124,-35414.95328127781,-38363.1036714439,-39564.06290102755,-29107.626272156987,-38744.603245807084
14125.69899865377,5512.856604201389,-28701.875055059798,-35415.71324058929,-38160.507459701,-39556.6868253573,-28990.88311086692,-38686.80163464566
14246.197253012331,5440.83928356639,-28800.446248107703,-35531.56233210115,-38017.99273705396,-39673.22882094727,-28985.11636079745,-38744.49148708481
14232.495633661227,5424.902489769756,-28830.911675800286,-35547.61088462006,-38203.13223637727,-39701.28026023868,-29109.81674311361,-38810.96557509489
14110.902143824356,5495.869278415355,-28739.291875277984,-35427.49260991724,-38370.367988391874,-39587.867508872456,-29134.04603410316,-38764.317484416664
14110.052777535055,5522.087874661431,-28695.325993934395,-35401.92221426037,-38205.5685765229,-39550.22717120971,-29015.157105345384,-38691.24963179226
14227.220621969775,5453.736240117102,-28784.285936866516,-35517.592491816584,-38020.496132432956,-39653.04519570413,-28975.393351959392,-38728.15236188798
14233.546165650627,5406.864631994323,-28852.27994349956,-35577.584573934626,-38172.62210519578,-39723.34143201607,-29102.66418488791,-38826.23181655786
14121.966257329734,5474.501010716082,-28763.185890100707,-35476.21941282981,-38372.67021807077,-39630.715802993276,-29150.92160116692,-38799.16385402249
14107.996417045168,5539.231662658652,-28674.695333802145,-35390.14284493242,-38238.58210308339,-39547.76847931963,-29022.711994971276,-38696.61405046154
14214.368368907973,5473.003443837577,-28754.714578952146,-35497.72179099581,-38022.12780977819,-39638.06952691908,-28958.49543315118,-38714.271928581235
14254.9144333499,5412.989009975077,-28838.37715844836,-35581.205556536384,-38120.87781678174,-39719.96631860332,-29064.107425702507,-38808.439827971444
14154.75626644567,5474.232789782619,-28770.20433785967,-35492.75970372673,-38349.73732825963,-39642.383413598945,-29141.01977837322,-38808.68569716045
14103.101385009455,5540.393953370328,-28677.824578025888,-35400.514054359686,-38285.07373155042,-39553.35641543346,-29045.063739426583,-38724.93371068641
14206.81347928208,5503.245354085607,-28723.131564036797,-35473.58190698408,-38042.53495246589,-39612.543834751115,-28946.894877778876,-38714.38368730351
14283.278797063685,5444.907301057256,-28813.209094191683,-35564.307637728176,-38068.91001092315,-39704.16363527341,-29018.97925364724,-38791.13957776303
14198.699796044802,5490.460156257172,-28766.91863142474,-35493.56436652713,-38306.263185294054,-39643.70216652181,-29112.23073151478,-38803.25422325781
14113.60670490345,5557.180113456263,-28674.360057635316,-35393.24973741171,-38311.58290047442,-39547.76847931963,-29045.66723652688,-38726.431277564916
14200.353825134496,5540.058677203498,-28698.321127691404,-35436.25449374372,-38068.641789989684,-39580.223212268735,-28931.11454619343,-38694.58004171611
14289.783154700179,5459.592397164392,-28808.738745300623,-35555.635160879516,-38040.23272278699,-39689.72440835529,-28985.250471264182,-38775.158080477486
14223.733749834748,5479.999539852088,-28797.13818992832,-35522.979262230314,-38282.74915012707,-39662.25411441972,-29105.368745967004,-38822.54377872274
14131.55515570106,5566.858418805411,-28691.01210725452,-35394.38967637893,-38342.763583989574,-39545.01921475163,-29066.588469337046,-38747.28545514172
14189.647339540405,5555.883712277855,-28695.10247648984,-35418.9095400464,-38118.419124891654,-39567.34860746248,-28951.566392370034,-38706.04648662168
14279.769573184201,5458.921844830733,-28801.47442835265,-35545.17454447443,-38024.58650166828,-39686.930440298376,-28969.35838095646,-38774.28636244373
14230.43927317134,5445.890777813289,-28819.154658216794,-35551.25421896627,-38245.15351595325,-39670.23368719026,-29093.209396983315,-38831.439773015954
14120.848670106969,5525.105360162897,-28717.34246222287,-35428.185513995355,-38367.864593012884,-39569.98611330821,-29090.303670204125,-38777.08033050065
14150.867062910445,5538.136427180341,-28688.464008386614,-35415.64618535592,-38162.78733763544,-39545.287435685095,-28964.82097683203,-38708.4381232784
14260.859997375012,5458.698327386181,-28789.65035553579,-35542.492335139796,-38016.94220506456,-39657.67200680638,-28954.427415660313,-38760.87531577055
14246.845453601534,5440.571062632926,-28827.804783321,-35569.71675988636,-38201.18763460966,-39691.266678722706,-29077.31730667559,-38837.653557974525
14133.522109213127,5519.562127537982,-28730.9323228517,-35450.0678718171,-38369.36215989139,-39588.53806120611,-29102.887702332464,-38796.14636852102
14133.790330146592,5554.05086923252,-28680.506787360526,-35412.33812717654,-38206.239128856556,-39538.62661583741,-28983.261166007658,-38716.55180651567
14255.361468239007,5485.788641666012,-28767.902108180777,-35528.1872186884,-38012.42715268459,-39642.22695138776,-28939.898781764365,-38747.93365573092
14268.906625378922,5437.151245731264,-28833.95151304621,-35592.58259446414,-38153.39960496421,-39705.437684707365,-29060.08411170055,-38835.82071492919
14157.505531013672,5505.659342486781,-28745.393901514282,-35476.73350295228,-38358.16393591928,-39608.98990738272,-29115.583493183076,-38813.044287329234
14127.978876588211,5557.828314045467,-28668.66036279921,-35405.811417795594,-38243.29832116346,-39532.61399657893,-29004.338861029013,-38719.23401585031
14234.86491857349,5501.703083718191,-28743.091671835384,-35499.912261952435,-38025.39116446867,-39613.28144231814,-28938.602380585955,-38731.34866134509
14288.173829099398,5457.424277952227,-28821.099259984407,-35584.58066994914,-38107.533825341925,-39693.85948107952,-29035.899524199907,-38816.464104230894
14182.025394681144,5501.367807551362,-28766.672762235736,-35509.6799742794,-38345.4010898353,-39633.576826283555,-29127.698138677853,-38825.985947368856
14116.020693304623,5556.509561122604,-28682.540796105957,-35419.06600225759,-38294.70733341066,-39537.64313908138,-29043.275599870158,-38738.90355097098
14213.76487180768,5515.13648213583,-28735.089747320384,-35493.56436652713,-38058.22587707351,-39605.123055591954,-28952.97455227072,-38727.72767874333
14285.782192442679,5449.8470365818785,-28830.643454866822,-35592.38142876404,-38080.2870488509,-39699.51447242671,-29026.578846762044,-38810.45148497242
14199.795031523114,5485.319255032451,-28792.80195150399,-35526.60024483207,-38319.0930866114,-39640.25999787569,-29124.613597943022,-38829.71868869289
14111.192716502275,5550.340479652939,-28696.309470690427,-35416.74142083424,-38330.045441394504,-39545.39919440737,-29069.04716122713,-38752.024024966246
14189.982615707233,5526.781740997046,-28719.957616324144,-35467.99397087026,-38087.99840068798,-39584.73826464871,-28956.550831383567,-38714.71896347034
14287.995015143755,5455.099696528876,-28822.03803325153,-35574.3435709886,-38048.41346125764,-39681.85659430702,-29004.092991840007,-38789.86552832908
14224.04667425712,5466.007347823066,-28801.98851847512,-35534.95979725836,-38276.96004831315,-39654.69922479382,-29114.66707166041,-38823.92958687897
14100.55328614155,5515.561165280481,-28711.06162203093,-35439.40608971192,-38358.432156852745,-39564.73345336121,-29096.651565629432,-38765.85975478408
14150.196510576787,5505.569935508959,-28700.57865388139,-35452.25834277372,-38128.432706407635,-39568.51089817416,-28972.39821820238,-38711.79088494669
14262.82695088708,5429.037562493988,-28795.26064339407,-35558.96557080335,-38020.74200162196,-39673.38528315846,-28980.51190143966,-38766.552658862194
14193.871819242457,5392.090128909365,-28814.393736647817,-35553.37763468953,-38240.30318740645,-39679.33084718357,-29109.548522180146,-38833.25026431683
14057.1685501538,5451.255196482563,-28717.074241289407,-35441.037767057154,-38371.48557561464,-39577.69746514529,-29112.85658035953,-38782.44474916992
14066.35511712493,5452.261024983051,-28693.694316589157,-35434.131078020466,-38177.94182037614,-39564.576991150025,-28993.364154501458,-38721.536245529205
14154.935080401312,5345.218520786586,-28790.656184036277,-35546.89562879749,-38025.70408889104,-39672.737082569256,-28978.433189205312,-38770.3524554196
14121.139242784888,5294.681226573137,-28823.826172807956,-35561.290152226706,-38194.79503569544,-39685.99166703125,-29091.734181849264,-38832.51265674981
13974.042412524512,5337.685982905148,-28738.39780549977,-35459.1203283215,-38372.93843900424,-39590.68382867382,-29122.51253396422,-38798.40389471101
13944.0910749544,5347.7666196544915,-28684.53010136248,-35420.071830758076,-38210.8212364699,-39553.110546244454,-28998.013317348163,-38719.457533294866
14024.467948015685,5236.834911922802,-28783.45892232167,-35546.35918693056,-38022.41838245611,-39657.87317250647,-28960.06005526305,-38755.443841867906
14025.339666049442,5173.6688820921045,-28850.33534173195,-35604.89840565901,-38160.06042481189,-39709.59510917606,-29078.27843168717,-38846.30368307873
13906.763661714038,5237.371353789729,-28770.249041348583,-35494.9278229389,-38365.294142400526,-39607.55939573758,-29131.497935235257,-38816.77702865327
13851.286631975965,5270.764860005958,-28698.991680025065,-35425.659766871904,-38262.923152795214,-39541.77821180561,-29025.32714907255,-38720.642175750996
13941.475920853129,5195.975923058501,-28765.175195357227,-35523.49335235278,-38032.99075758347,-39615.963651652775,-28944.97262775572,-38722.81029496316
13977.976319548647,5128.384247825653,-28854.33630398945,-35596.76237067728,-38116.78744754642,-39703.89541433995,-29050.94224821833,-38822.767296167294
13863.64714665975,5161.442477875052,-28798.233425406626,-35513.546826070175,-38351.726633516155,-39641.08701242054,-29138.784603927685,-38830.389241026554
13795.92136096017,5223.535623971895,-28706.390107439773,-35424.743345349234,-38304.743266671096,-39546.181505463304,-29051.724559274266,-38734.36614684655
13897.84531567637,5195.372425958208,-28749.126642838317,-35492.33502058208,-38057.68943520659,-39595.467101987255,-28949.912363280342,-38711.88029192451
13965.057011253479,5117.878927931658,-28848.971885320174,-35604.563129492184,-38073.93915342559,-39698.53099567068,-29023.98604440523,-38799.700295889415
13880.500361979051,5149.149018424633,-28810.862161023877,-35528.589550088596,-38312.38756327481,-39648.23957064624,-29124.591246198568,-38818.34165076514
13797.44127958313,5224.809673405847,-28719.041194801473,-35424.765697093695,-38335.231046108136,-39549.98130202071,-29070.790597294643,-38740.28935912721
13866.865797861314,5207.867051108725,-28751.07124460593,-35484.55661351164,-38104.0469532069,-39589.320372262046,-28965.133901254405,-38709.443951778885
13961.279566440531,5130.261794359898,-28862.561745949002,-35612.27448132926,-38068.41827254513,-39712.25496676624,-29019.06866062506,-38796.45929294339
13920.46528106514,5161.509533108418,-28838.757138104098,-35564.575858661636,-38294.036781077004,-39682.97418152978,-29128.30163577815,-38835.82071492919
13832.35470442232,5259.276063355931,-28724.807944870943,-35438.69083388935,-38361.76256677658,-39557.513839902145,-29089.43195217037,-38750.705272043386
13891.296254550965,5266.5850837928165,-28721.611645413836,-35467.613991214515,-38135.294691955416,-39575.35053197748,-28973.35934321396,-38701.62084121953
14025.719645705181,5208.135272042188,-28815.8018965485,-35575.841137867115,-38021.65842314463,-39671.91006802441,-28977.82969210502,-38757.32138840215
14005.938351862234,5215.645458179171,-28836.589018891937,-35575.349399489096,-38236.14576293776,-39684.538803641655,-29105.99459481175,-38827.416459014
13898.873495921314,5304.538345877927,-28738.68837817769,-35461.310799278115,-38373.63134308235,-39580.580840180024,-29115.918769349908,-38781.77419683626
13922.320475854931,5326.085427532844,-28719.108250034842,-35457.2204300428,-38188.827119925874,-39566.812165595555,-28997.856855136975,-38713.154341358466
14055.78274199757,5272.530647817927,-28814.97488200365,-35570.92375408694,-38033.01310932793,-39672.62532384698,-28978.902575838874,-38758.3495686471
14063.181169412277,5259.097249400288,-28853.956324333707,-35599.310469545184,-38202.03700089896,-39704.27539399569,-29097.47858017428,-38830.47864800438
13959.71494432866,5345.844369631335,-28754.267544063037,-35477.471110519306,-38374.234840182646,-39599.35630552248,-29124.703004920844,-38788.367961450575
13956.786865805016,5386.748061984546,-28698.812866069424,-35422.41876392588,-38216.520931306,-39540.526514116114,-28999.756753415677,-38702.96194588685
14075.474628862696,5318.038799528933,-28791.907881725776,-35540.97241651683,-38028.78862962587,-39646.87611423447,-28958.584840129002,-38734.81318173566
14100.463879163728,5278.543267076406,-28863.746388405132,-35604.40666728099,-38163.16731729118,-39711.04797256565,-29077.69728633133,-38822.38731651155
13998.606979680895,5353.220445301587,-28779.860291464367,-35495.17369212791,-38371.48557561464,-39615.91894816386,-29132.749632924755,-38795.63227839855
13974.221226480155,5416.967620488122,-28693.627261355792,-35415.69088884484,-38257.93871378168,-39529.127124443905,-29013.324262300048,-38697.619878962025
14083.297739422052,5361.423535516684,-28769.109102381364,-35524.92386399792,-38037.5281617079,-39616.81301794208,-28943.92209576632,-38709.91333841245
14140.920536627835,5306.080616245344,-28858.18080403576,-35608.251167327304,-38116.78744754642,-39709.25983300922,-29050.539916818136,-38806.07054305918
14041.097645890433,5353.622776701782,-28804.201341176195,-35522.286358152196,-38350.87726722685,-39637.063698418584,-29133.978978869796,-38805.847025614625
13983.608959151383,5426.712981070636,-28706.703031862144,-35422.48581915925,-38309.23596730661,-39540.90649377185,-29046.561306305088,-38715.255405337266
14094.27244594961,5402.416634847717,-28742.465822990638,-35486.277697834696,-38062.070377119824,-39592.40491299688,-28942.424528887816,-38692.85895739305
14172.525903287638,5335.607270670805,-28843.18278350625,-35595.91300438798,-38077.09074939379,-39699.73798987127,-29020.02978563664,-38785.14931024901
14095.41238491683,5373.448774033639,-28803.866065009366,-35531.83055303461,-38313.37104003084,-39652.12877418146,-29121.327891508092,-38804.103589547114
14006.005407095601,5442.292146955985,-28706.166589995217,-35429.52661866267,-38340.170781632754,-39552.23882821069,-29068.577774593567,-38730.275777611234
14088.528047624595,5428.702286327158,-28719.48822969058,-35466.96579062531,-38098.63783104871,-39577.69746514529,-28951.6334476034,-38694.53533822719
14196.799897766103,5364.284558806963,-28815.578379103947,-35580.646762925004,-38039.69628092006,-39684.78467283066,-28987.73151489872,-38768.22903969634
14139.065341838044,5380.288407836963,-28811.488009868626,-35548.25908520926,-38276.065978534934,-39668.55730635611,-29111.783696625676,-38819.72745892137
14034.950916165224,5459.815914608946,-28706.390107439773,-35429.75013610723,-38360.376758620354,-39556.73152884621,-29085.878024801976,-38751.37582437704
14089.489172636173,5470.075365313932,-28690.7215345766,-35436.075679788075,-38129.77381107495,-39556.79858407957,-28953.242773204183,-38685.61699218953
14213.496650874216,5406.1717279162085,-28786.342297356405,-35551.924771299935,-38009.67788811659,-39659.169573684885,-28952.192241214783,-38736.13193465852
14185.244045882708,5395.73346325558,-28807.017660977563,-35555.29988471269,-38216.76680049501,-39669.74194881224,-29078.345486920534,-38799.208557511396
14074.960538740223,5477.585551450915,-28702.947938793655,-35427.78318259516,-38358.81213650848,-39561.984188793205,-29087.08501900256,-38749.14064993151
14090.137373225376,5490.571914979448,-28672.706028545625,-35409.11947597498,-38171.16924180618,-39535.96675824723,-28966.139729754894,-38678.57619268611
14211.887325273434,5419.828643778401,-28771.567794271446,-35526.622596576526,-38012.98594629597,-39647.211390401295,-28950.135880724894,-38728.174713632434
14224.180784723852,5407.289315138974,-28807.352937144395,-35548.97434103183,-38175.326666274865,-39674.189945958846,-29064.152129191418,-38794.06765628668
14113.763167114636,5484.8275166544345,-28714.660252888236,-35426.53148490566,-38356.06287194048,-39564.30877021656,-29097.836208085562,-38750.124126687544
14089.31035868053,5506.37459830935,-28675.745865791545,-35400.73757180424,-38226.8250854999,-39533.39630763487,-28999.35442201548,-38688.70153292436
14205.941761248323,5438.805274820957,-28759.207279587663,-35508.51768356773,-38023.93830107907,-39631.56516928258,-28948.83947954649,-38718.9881466613
14243.068008788588,5406.439948849672,-28817.52298087156,-35553.95878004537,-38136.00994777798,-39684.35998968601,-29049.355274362002,-38791.318391718676
14136.964277859244,5470.365937991851,-28737.10140432136,-35456.214601542306,-38345.73636600213,-39594.573032209046,-29112.61071117052,-38773.77227232126
14093.065451749022,5519.718589749168,-28665.709932531114,-35391.103969944,-38255.882353291796,-39525.90847324234,-29017.146410601905,-38700.346791785574
14195.52584833215,5462.967510577144,-28735.514430465035,-35481.62853498799,-38027.894559847664,-39604.072523602554,-28938.624732330412,-38696.61405046154
14245.481997189761,5398.0133411900215,-28830.59875137791,-35577.785739634724,-38102.03529620592,-39686.37164668699,-29037.12887014495,-38778.48849040133
14155.9409089018,5456.530208174016,-28771.03135240452,-35485.83066294559,-38338.2485316096,-39618.13177086494,-29125.75353691024,-38786.28924921623
14095.948826783757,5532.459084088693,-28668.146272676742,-35381.17979540584,-38297.680115423216,-39518.04065919408,-29038.201753878806,-38694.825910905114
14183.724127259748,5487.442670755705,-28715.91195057773,-35455.3205317641,-38060.34929279677,-39583.039532070106,-28943.385653899393,-38682.1301200545
14270.784171913168,5419.8509955228565,-28809.185780189728,-35556.86450682455,-38059.00818812945,-39686.46105366481,-29009.70327969829,-38765.88210652854
14191.14490641891,5449.9587953041555,-28782.609556032367,-35504.22614863231,-38304.56445271545,-39639.030651930654,-29120.7243944078,-38793.73238011985
14094.473611649706,5516.969325181166,-28685.066543229408,-35398.122417702965,-38341.15425838879,-39539.833610038,-29076.26677468619,-38721.91622518495
14157.527882758128,5498.350322049895,-28704.8254853279,-35448.54795319414,-38106.23742416351,-39581.564316936056,-28963.323409953526,-38689.01445734673
14263.341041009551,5432.211510206641,-28805.94477724371,-35559.85964058157,-38041.84204838777,-39682.728312340776,-28998.750924915188,-38760.47298437035
14213.563706107583,5444.7955423349795,-28800.066268451963,-35531.11529721204,-38267.57231564192,-39661.404748130415,-29116.209342027825,-38807.72457214887
14115.484251437694,5527.251127630607,-28689.15691246473,-35409.790028308635,-38349.35734860389,-39546.51678163013,-29087.643812613944,-38734.29909161319
14153.258699567165,5521.171453138763,-28686.698220574646,-35424.25160697122,-38136.63579662273,-39556.97739803522,-28973.180529258316,-38688.00862884625
14270.806523657624,5445.7343156021025,-28787.41518109026,-35534.69157632489,-38014.30469921884,-39661.02476847467,-28977.270898493636,-38746.12316443004
14235.222546484774,5428.0093822490435,-28819.534637872537,-35554.159945745465,-38224.03111744298,-39685.90226005343,-29105.41344945591,-38807.948089593425
14111.952675813756,5498.640894727814,-28725.63495941579,-35436.20979025481,-38375.5088896166,-39578.703293645776,-29118.66803391791,-38760.58474309263
14132.762149901648,5530.827406743456,-28679.94799374914,-35406.303156173606,-38183.574459978874,-39543.476944384216,-28989.385543988414,-38684.834681133594
14253.14864553793,5461.64875765428,-28771.858366949367,-35512.205721402854,-38011.130751506185,-39643.858628732996,-28960.752959341167,-38720.59747226208
14253.05923856011,5430.378667161306,-28818.93114077224,-35549.756652087766,-38176.06427384189,-39676.67098959339,-29079.75364682122,-38792.16775800798
14149.235385565209,5511.8507757009,-28717.990662812077,-35427.894941317434,-38352.66540678327,-39572.623619153936,-29109.5708739246,-38750.43705110992
14117.831184605502,5533.800188756012,-28674.87414775779,-35389.53934783213,-38223.20410289813,-39533.21749367923,-29005.903483140886,-38680.140814797975
14219.598677110514,5457.200760507674,-28767.16450061375,-35506.751895755755,-38032.029632571895,-39630.8052099711,-28964.128072753916,-38715.322460570635
14262.58108169807,5427.0706089819205,-28823.6026553634,-35556.23865797981,-38135.22763672205,-39685.321114697595,-29061.89460300143,-38788.41266493948
14149.794179176592,5485.65453119928,-28753.708750451657,-35463.09893883454,-38352.88892422783,-39601.92675613484,-29127.519324722212,-38771.06771124217
14105.090690265977,5537.868206246878,-28670.62731631128,-35375.83772848103,-38270.16511799874,-39522.46630459622,-29029.685739241333,-38686.5334137122
14211.596752595515,5485.855696899378,-28729.099479806362,-35462.49544173425,-38033.9295308506,-39594.30481127558,-28943.07272947702,-38680.83371887609
14269.241901545753,5429.059914238443,-28823.66971059677,-35561.781890604725,-38094.659220535665,-39693.85948107952,-29038.872306212463,-38778.98022877934
14176.012775422667,5479.664263685258,-28768.997343659088,-35469.62564821549,-38329.68781348322,-39617.72943946475,-29125.217095043314,-38784.56816489317
14103.995454787668,5543.277328405062,-28674.87414775779,-35375.36834184746,-38304.16212131526,-39518.644156294366,-29050.27169588467,-38696.36818127253
14187.9486069618,5503.111243618875,-28714.950825566153,-35434.756926865215,-38064.2831998209,-39575.417587210846,-28946.894877778876,-38676.49748045176
14264.458628232316,5423.650792080259,-28823.66971059677,-35549.8907625545,-38068.8876591787,-39688.5174141547,-29020.588579248022,-38768.76548156327
14187.836848239524,5451.389306949295,-28792.89135848181,-35490.99391591477,-38309.794760918,-39642.69633802132,-29126.692310177365,-38790.22315624037
14096.373509928408,5523.138406650831,-28686.698220574646,-35378.78815874913,-38345.33403460193,-39528.63538606589,-29073.048123484627,-38703.85601566506
14170.581301520027,5514.980019924644,-28694.118999733808,-35411.28759518714,-38102.37057237275,-39548.17081071983,-28952.147537725872,-38657.38673894248
14276.081535349076,5444.482617912605,-28794.299518382493,-35525.75087854277,-38029.39212672617,-39655.258018405206,-28981.093046795497,-38727.10182989858
14221.319761433573,5453.691536628192,-28795.238291649617,-35509.769381257225,-38256.7317195811,-39653.98396897125,-29101.658356387423,-38780.880127058044
14107.772899600614,5526.871147974867,-28696.980023024087,-35399.642336325924,-38357.44868009671,-39540.50416237166,-29087.017963769194,-38719.52458852823
14141.725199428225,5524.278345618051,-28688.464008386614,-35408.09129573003,-38148.705738628596,-39544.95215951827,-28971.571203657535,-38669.61314315953
14257.171959539886,5450.606995893359,-28785.82820723393,-35516.94429122738,-38022.61954815621,-39653.7604515267,-28972.129997268916,-38724.196103119386
14238.15062500842,5441.822760322423,-28804.827190020944,-35518.06187845014,-38216.431524328174,-39660.93536149685,-29085.69921084633,-38780.43309216894
14127.196565532277,5522.646668272814,-28704.356098694338,-35397.362458391486,-38364.444776111224,-39555.613941623444,-29095.310460962115,-38729.96285318886
14138.551251715571,5545.490151106138,-28667.60983080981,-35373.55785054658,-38186.30137280242,-39522.60041506296,-28975.72862812622,-38657.4761459203
14255.9649653393,5469.203647280175,-28760.50368076607,-35486.09888387905,-38011.756600350935,-39624.81494245707,-28941.910438765342,-38692.881309137505
14257.686049662358,5434.401981163262,-28817.88060878284,-35536.8373437926,-38174.633762196754,-39674.92755352587,-29067.28137341516,-38777.81793806767
14135.578469703016,5500.406682539783,-28735.983817098597,-35430.17481925188,-38372.200831437214,-39578.65859015687,-29119.740917651765,-38753.87921975604
14113.964332814734,5538.024668458065,-28675.835272769367,-35372.21674587927,-38240.1243734508,-39527.36133663194,-29010.038555865118,-38674.23995426178
14227.846470814524,5472.332891503917,-28756.65918071976,-35482.16497685492,-38030.93439709359,-39618.22117784276,-28947.856002790453,-38692.18840505939
14264.101000321032,5426.511815370538,-28827.357748431892,-35545.55452413017,-38136.03229952244,-39684.98583853076,-29051.23282089625,-38776.16390897798
14153.32575480053,5477.22792353963,-28761.420102288736,-35457.71216842082,-38361.18142142075,-39606.531215492636,-29127.09464157756,-38772.67703684295
14105.917704810823,5533.151988166808,-28679.120979204297,-35371.79206273461,-38281.586859415394,-39530.803505278054,-29027.584675262533,-38686.309896267645
14198.185705922331,5469.650682169281,-28750.579506227914,-35470.98910462727,-38054.00139737146,-39606.19593932581,-28948.34774116847,-38689.26032653575
14267.364355011507,5414.844204764868,-28837.684254370244,-35561.20074524888,-38105.3433543853,-39691.534899656166,-29037.195925378317,-38771.13476647553
14179.879627213435,5466.722603645636,-28780.6426025203,-35483.193157099864,-38339.81315372147,-39630.38052682645,-29127.29580727766,-38776.834461311635
14101.894390808868,5528.7933979980235,-28684.798322295945,-35384.130225673944,-38321.35061280139,-39535.22915068021,-29052.104538930005,-38694.825910905114
14185.80283949409,5492.114185346864,-28723.220971014616,-35442.17770602438,-38079.25886860596,-39575.194069766294,-28949.957066769253,-38669.099053037055
14267.54316896715,5416.006495476544,-28828.452983910203,-35554.07053876764,-38069.357045812256,-39688.740931599255,-29015.917064656864,-38757.43314712443
14191.99427270821,5439.699344599169,-28810.41512613477,-35512.02690744721,-38317.461409266165,-39655.32507363857,-29134.627179459,-38801.667249401486
14103.190791987276,5521.059694416487,-28698.991680025065,-35388.42176060936,-38353.85004923941,-39539.52068561562,-29078.52430087618,-38715.389515803996
14161.238272337709,5498.216211583163,-28714.190866254674,-35425.10097326052,-38123.09063948281,-39564.845212083485,-28962.54109889759,-38670.10488153755
14264.01159334321,5418.509890855538,-28820.473411139657,-35545.487468896805,-38052.57088572632,-39678.2132599608,-28995.174645802337,-38740.490524827306
14222.146775978421,5431.250385195063,-28816.383041904337,-35526.332023898605,-38273.227306989116,-39668.95963775631,-29117.32692925059,-38796.280478987755
14111.41623394683,5511.627258256347,-28709.11702026332,-35393.56266183408,-38372.893735515325,-39553.40111892237,-29100.89839707594,-38729.89579795549
14150.420028021339,5520.635011271836,-28690.49801713205,-35390.500472843705,-38163.56964869137,-39546.40502290786,-28976.73445662671,-38662.527640167194
14267.118485822499,5446.628385380314,-28788.55512005748,-35505.58960504408,-38028.945091837064,-39650.787669514146,-28972.219404246738,-38717.64704199399
14249.52766293617,5437.821798064923,-28812.203265691194,-35516.72077378282,-38213.794018482455,-39664.24341967624,-29088.716696347798,-38783.62939162605
14127.397731232373,5506.173432609253,-28720.404651213248,-35407.33133641855,-38377.2076221952,-39564.35347370547,-29109.39205996896,-38733.650891023986
14127.397731232373,5519.852700215901,-28681.110284460818,-35387.79591176462,-38204.29452708895,-39538.358394903946,-28992.112456811963,-38662.57234365611
14252.38868622645,5456.284338985007,-28769.84670994839,-35494.99487817226,-38021.14433302216,-39638.31539610808,-28957.936639539796,-38701.397323774974
14260.100038063532,5423.226108935608,-28821.836867551432,-35538.22315194883,-38172.08566332885,-39681.70013209583,-29072.489329873246,-38777.594420623114
14131.622210934427,5477.809068895468,-28746.60089571487,-35437.617950155494,-38380.53803211904,-39593.522500219646,-29130.33564452358,-38758.08134771363
14119.775786373113,5533.24139514463,-28668.034513954466,-35360.929114929335,-38243.58889384138,-39518.04065919408,-29007.669270952854,-38664.24872449025
14231.333342949552,5467.661376912758,-28747.07028234843,-35466.96579062531,-38027.894559847664,-39609.392238782915,-28944.25737193315,-38680.07375956461
14263.765724154202,5409.4574343511385,-28833.549181646013,-35548.929637542926,-38139.74268910202,-39692.317210712106,-29058.13950993294,-38775.87333630006
14160.411257792863,5474.836286882912,-28763.722331967634,-35453.80061314114,-38366.92581974576,-39604.81013116958,-29131.117955579517,-38763.87044952756
14118.50173693916,5544.104342949909,-28675.63410706927,-35358.64923699489,-38294.57322294393,-39518.93472897229,-29035.139564888428,-38670.10488153755
14220.693912588826,5482.435879997716,-28731.513468207537,-35442.82590661358,-38053.979045627006,-39592.11434031896,-28946.716063823234,-38665.43336694639
14287.212704087819,5417.638172821781,-28810.593940090414,-35524.07449770862,-38085.45030182008,-39672.67002733589,-29020.18624784783,-38746.86077199707
14182.405374336884,5450.785809849001,-28766.806872702466,-35461.89194463396,-38324.792781447504,-39615.248395830204,-29113.817705371108,-38755.98028373483
14098.608684373938,5517.729284492646,-28678.003391981532,-35368.19343187731,-38322.37879304634,-39525.416734864324,-29054.02678895316,-38680.05140782016
14189.624987795949,5495.310484803973,-28706.278348717493,-35423.13401974845,-38079.30357209487,-39573.20476450977,-28948.906534779853,-38658.14669825396
14271.611186458014,5413.659562308737,-28807.17412318875,-35535.295073425186,-38058.784670684894,-39687.62334437649,-29006.395221518902,-38739.350585860084
14190.13907791842,5425.751856059058,-28789.628003791335,-35496.000706672756,-38306.285537038515,-39654.22983816026,-29124.703004920844,-38780.254278213295
14097.781669829092,5504.832327941934,-28681.40085713874,-35378.56464130457,-38353.13479341684,-39540.168886204825,-29077.116140975493,-38699.27390805172
14148.587184976004,5480.8936096303005,-28697.58352012438,-35422.0611360146,-38122.8000668049,-39567.728587118225,-28963.435168675802,-38659.13017500999
14255.227357772275,5406.864631994323,-28800.133323685328,-35536.345605414586,-38038.22106578601,-39671.887716279954,-28987.50799745417,-38725.26898685324
14210.546220606117,5411.3349808853845,-28805.296576654506,-35508.80825624565,-38261.470289405624,-39664.22106793178,-29112.297786748146,-38781.50597590279
14104.688358865782,5493.298827802995,-28695.01306951202,-35384.62196405196,-38364.221258666665,-39544.54982811807,-29094.237577228258,-38709.734524456806
14129.677609166814,5494.125842347842,-28684.463046129116,-35395.01552522368,-38162.183840535145,-39544.01338625114,-28973.180529258316,-38648.35663418253
14246.57723266807,5420.365085645329,-28782.251928121084,-35508.49533182327,-38026.62051041371,-39652.93343698185,-28967.25731697766,-38703.990126131794
14234.417883684384,5413.659562308737,-28805.475390610147,-35514.91028248194,-38210.508312047525,-39669.5631348566,-29086.168597479893,-38768.85488854109
14111.259771735642,5486.950932377688,-28713.162686009728,-35397.60832758049,-38374.50306111611,-39565.761633606155,-29108.18506576837,-38722.586777518605
14109.538687412583,5510.174394866753,-28670.739075033558,-35367.96991443275,-38205.61328001181,-39528.2777581546,-28985.40693347537,-38646.63554985947
14222.303238189608,5432.0550479954545,-28766.7398174691,-35499.21935787432,-38022.865417345216,-39637.71189900779,-28947.230153945704,-38681.25840202074
14234.663752873392,5395.107614410832,-28823.915579785775,-35533.21636119084,-38177.293619786935,-39686.617515876,-29069.337733905046,-38767.51378387377
14121.474518951718,5472.981092093121,-28733.480421719603,-35428.96782505129,-38373.07254947097,-39593.656610686376,-29117.7739641397,-38740.356414360576
14096.082937250489,5521.66319151678,-28667.67688604318,-35369.243963866706,-38254.09421373537,-39534.82681928001,-29008.40687851988,-38657.20792498683
14211.216772939775,5455.703193629169,-28739.694206678178,-35463.344808023554,-38036.52233320741,-39604.921889891855,-28939.675264319812,-38670.127233282
14248.8124071136,5400.024998190999,-28818.349995416404,-35544.012253762754,-38134.55708438839,-39696.22876599178,-29044.59435279302,-38765.233905939334
14147.983687875712,5462.6992896436805,-28749.08193934941,-35455.83462188657,-38360.48851734263,-39612.096799862,-29119.070365318104,-38762.641103582515
14093.959521527235,5519.673886260258,-28667.699237787634,-35371.36737958996,-38295.4896444666,-39525.1261621864,-29025.349500817003,-38677.45860546334
14193.916522731368,5469.136592046809,-28718.057718045442,-35450.000816583735,-38055.07428110531,-39593.03076184163,-28931.427470615803,-38670.440157704375
14258.088381062555,5402.349579614352,-28809.47635286765,-35546.7391665863,-38088.53484255491,-39686.32694319808,-29010.46323900977,-38757.79077503571
14172.682365498826,5449.89174007079,-28759.654314476767,-35467.055197603135,-38323.96576690266,-39625.86547444647,-29102.060687787616,-38776.52153688926
14090.271483692108,5509.682656488736,-28660.993714451044,-35372.01558017917,-38316.81320867696,-39524.366202874924,-29027.405861306892,-38690.06498933613
14165.127475872932,5461.402888465273,-28692.643784599757,-35422.508170903704,-38073.58152551431,-39566.54394466209,-28916.54120880857,-38658.057291276134
14230.14870049342,5366.676195463681,-28810.482181368137,-35551.54479164419,-38059.209353829545,-39688.65152462143,-28984.53521544161,-38753.38748137802
14159.405429292374,5401.790786002968,-28784.263585122062,-35495.441913061375,-38292.025124076026,-39657.627303317466,-29091.33185044907,-38793.84413884213
14045.188015125754,5461.268777998541,-28684.418342640205,-35388.22059490927,-38349.200886392704,-39549.10958398695,-29051.009303451694,-38721.2903763402
14078.268596919608,5413.838376264379,-28692.621432855303,-35411.131132975956,-38122.95652901608,-39551.76944157713,-28934.176735183806,-38669.590791415074
14168.614348007959,5315.602459383304,-28791.572605558948,-35527.9860529883,-38025.83819935777,-39652.240532903736,-28947.20780220125,-38729.314652599656
14099.525105896606,5294.9941509955115,-28812.471486624658,-35530.06476522264,-38252.57429511241,-39666.143317954935,-29077.85374854252,-38794.447635942415
13968.499179899596,5350.649994689226,-28706.993604540065,-35403.46448462778,-38367.864593012884,-39541.509990872146,-29064.397998380424,-38730.365184589056
13966.1969502207,5323.067942031377,-28695.9741945236,-35412.874569043466,-38167.21298303759,-39536.03381348059,-28947.096043478974,-38677.32449499661
14045.746808737136,5208.448196464562,-28807.308233655483,-35546.78387007521,-38034.555379695346,-39664.556344098615,-28950.29234293608,-38745.877295241036
14003.613770438884,5163.476486620484,-28841.7075683722,-35571.52725118724,-38221.23714938607,-39685.164652486405,-29074.500986874224,-38823.99664211233
13866.664632161217,5225.212004806042,-28741.147070067775,-35451.028996828674,-38380.04629374103,-39566.320427217535,-29089.700173103833,-38767.51378387377
13855.98049831158,5249.441295795596,-28697.270595702004,-35420.29534820263,-38213.70461150463,-39527.026060465105,-28968.30784896706,-38684.208832288845
13948.360258145363,5153.217035915499,-28795.84178874991,-35541.8888380395,-38032.18609478308,-39639.18711414184,-28937.55184859656,-38727.01242292076
13946.058028466467,5100.109291089689,-28857.264382513094,-35598.86343465608,-38181.31693378889,-39701.19085326086,-29059.815890767088,-38813.58072919616
13829.761902065506,5166.359861655219,-28771.143111126796,-35493.609070016035,-38382.16970946428,-39607.53704399312,-29113.638891415467,-38791.0054672963
13787.472401556064,5197.36173121473,-28705.07135451691,-35440.45662170132,-38265.09127200738,-39537.12904895891,-29003.69066043981,-38706.225300577324
13889.664577205727,5128.227785614466,-28784.88943396681,-35536.72558507032,-38054.22491481601,-39633.24155011673,-28942.91626726583,-38724.21845486385
13939.978353974624,5084.194849037511,-28859.99129533664,-35616.454257542406,-38140.01091003548,-39708.41046671992,-29045.42136733787,-38811.90434836201
13842.301230704932,5144.701021278027,-28800.42389636325,-35531.18235244541,-38373.76545354909,-39632.03455591614,-29131.16265906843,-38813.1113425626
13793.417965581175,5216.65128667966,-28707.217121984617,-35436.03097629917,-38310.80058941848,-39539.38657514889,-29034.334902088038,-38720.70923098436
13892.32443479591,5177.088698993766,-28760.838956932897,-35516.36314587154,-38071.927496424614,-39598.88691888892,-28941.01636898713,-38709.66746922344
13972.589549134917,5121.455207044507,-28859.320743002983,-35614.46495228588,-38107.734991042016,-39697.27929798118,-29025.5506665171,-38792.81595859718
13905.55666751345,5179.100355994744,-28813.164390702772,-35544.6381026075,-38344.46231656818,-39643.52335256617,-29124.85946713203,-38806.51757794828
13830.946544521636,5254.403383064674,-28720.985796569086,-35443.04942405813,-38351.61487479387,-39546.963816519245,-29065.627344325465,-38728.35352758808
13924.645057278283,5242.378144547719,-28752.59116322889,-35504.092038165574,-38115.245177179,-39590.236793784716,-28961.378808185913,-38700.078570852114
14029.005352140111,5185.157678742133,-28855.923277845777,-35619.449391299415,-38085.562060542354,-39700.5203009272,-29017.45933502428,-38782.91413580348
13983.541903918018,5225.681391439604,-28826.620140864867,-35549.823707321135,-38309.77240917354,-39663.79638478713,-29122.601940942044,-38811.39025823954
13898.89584766577,5317.703523362104,-28714.10145927685,-35422.172894736876,-38366.344674389926,-39539.475982126714,-29081.362972422,-38729.091135155104
13965.660508353772,5317.368247195273,-28712.134505764785,-35451.07370031759,-38134.66884311067,-39554.13872648939,-28958.24956396217,-38680.96782934282
14085.331748167486,5254.783362720414,-28812.76205930258,-35556.17160274644,-38038.802211141854,-39665.91980051038,-28975.371000214935,-38746.88312374152
14050.954765195223,5263.858170969269,-28827.33539668744,-35551.32127419964,-38259.05630100445,-39675.441643648344,-29103.04416454365,-38809.87033961658
13942.146473186789,5347.833674887857,-28725.0314623155,-35434.95809256531,-38381.54386061953,-39559.54784864758,-29097.947966807842,-38749.56533307616
13979.742107360615,5371.101840865832,-28694.76720032301,-35426.710298861304,-38175.90781163071,-39540.8841420274,-28971.235927490703,-38684.052370077654
14107.169402500322,5306.304133689897,-28794.992422460607,-35544.90632354097,-38027.08989704727,-39646.87611423447,-28954.427415660313,-38724.0396409082
14108.778728101102,5301.319694676363,-28827.804783321,-35563.95000981689,-38211.58119578138,-39670.32309416808,-29077.362010164503,-38794.26882198678
14018.857660157402,5404.897678482256,-28713.92264532121,-35422.664633114895,-38364.89181100033,-39543.8345722955,-29083.955774778817,-38725.0901728976
14006.161869306789,5424.231937436097,-28676.975211736586,-35401.72104856027,-38211.93882369266,-39515.11258067043,-28972.82290134703,-38653.81045982963
14120.066359051032,5352.125209823276,-28773.713561739158,-35527.673128565926,-38032.20844652754,-39631.31930009357,-28945.263200433637,-38705.15241684347
14157.28201356912,5334.646145659226,-28820.652225095302,-35569.269724997255,-38158.24993351101,-39679.75553032822,-29051.16576566288,-38784.09877825961
14056.475646075683,5411.446739607661,-28730.462936218137,-35458.82975564358,-38355.68289228474,-39577.161023278364,-29098.551463908134,-38755.75676629028
14014.834346155447,5447.544806902982,-28674.091836701853,-35407.77837130766,-38257.15640272575,-39525.79671452007,-29005.434096507324,-38683.13594855499
14117.27239099412,5382.121250882298,-28755.005151630063,-35512.98803245879,-38047.56409496833,-39623.80911395659,-28948.25833419065,-38709.53335875671
14177.219769623252,5341.239910273542,-28828.698853099213,-35587.307582772686,-38126.51045638448,-39703.269565495204,-29042.783861492142,-38796.0569615432
14077.21806493021,5396.2475533780525,-28770.45020704868,-35496.335982839584,-38358.87919174185,-39622.02097440016,-29125.82059214361,-38794.738208620336
14025.29496256053,5465.694423400691,-28676.10349370283,-35402.48100787175,-38299.714124168655,-39530.87056051142,-29032.211486364784,-38699.98916387429
14126.41425447634,5429.328135171907,-28725.478497204604,-35471.54789823865,-38061.86921141973,-39584.8947268599,-28938.49062186368,-38684.74527415577
14200.644397812415,5366.117401852299,-28824.8543530529,-35571.5943064206,-38084.4891768085,-39683.75649258572,-29019.26982632516,-38771.13476647553
14108.912838567834,5398.058044678932,-28793.003117204087,-35511.244596391276,-38332.705298984685,-39640.639977531435,-29133.15196432495,-38804.371810480574
14038.281326089065,5481.720624175146,-28682.473740872592,-35396.98247873574,-38334.62754900784,-39528.25540641015,-29063.28041115766,-38712.595547747085
14120.89337359588,5461.536998932004,-28704.758430094535,-35437.6626536444,-38087.797234987884,-39551.858848554955,-28942.737453310187,-38661.70062562235
14207.707549060291,5381.897733437745,-28817.9029605273,-35561.156041759976,-38054.9848741275,-39672.49121338024,-28997.610985947966,-38750.45940285437
14146.150844830376,5400.516736569016,-28803.50843709808,-35525.39325063148,-38289.700542652674,-39649.26775089118,-29115.404679227435,-38796.280478987755
14047.132616893367,5478.501972973582,-28697.605871868836,-35405.99023175123,-38355.23585739564,-39536.72671755871,-29078.479597387268,-38718.76462921675
14095.971178528212,5468.197818779686,-28699.90810154773,-35429.59367389604,-38133.61831112127,-39547.34379617498,-28959.97064828523,-38668.00381755875
14204.33243564754,5387.7985939739465,-28804.626024320845,-35549.57783813213,-38034.91300760663,-39659.75071904072,-28977.337953727005,-38733.38267009052
14167.18383636282,5385.429309061684,-28820.674576839756,-35550.15898348796,-38254.4294899022,-39673.72055932529,-29108.989728568762,-38803.79066512474
14062.443561845252,5474.456307227172,-28707.261825473528,-35419.91536854689,-38375.79946229452,-39545.488601385194,-29102.686536632365,-38737.0930596701
14083.431849888784,5487.241505055607,-28680.99852573854,-35410.39352540893,-38182.34511403384,-39532.0328512231,-28981.093046795497,-38666.9756373138
14201.203191423798,5413.279582652996,-28778.40742807477,-35527.96370124385,-38029.86151335973,-39642.808096743596,-28964.597459387478,-38720.53041702872
14195.637607054427,5390.7937277309575,-28816.89713202681,-35548.773175331735,-38206.932032934674,-39666.72446331078,-29086.57092888009,-38798.090970288635
14084.795306300559,5468.734260646613,-28717.297758733963,-35433.10289777552,-38375.3077239165,-39559.614903880945,-29111.448420458844,-38751.465231354865
14075.251111418142,5496.361016793373,-28664.39117960825,-35392.601536822505,-38216.76680049501,-39510.66458352382,-28985.518692197646,-38656.626779631
14187.523923817149,5423.762550802535,-28759.006113887564,-35518.643023805984,-38028.81098137033,-39618.13177086494,-28944.212668444237,-38692.18840505939
14207.126403704455,5379.662558992214,-28827.827135065454,-35569.56029767517,-38166.36361674829,-39684.13647224146,-29065.403826880913,-38784.90344106
14102.45318442025,5451.232844738108,-28739.180116555708,-35455.365235253004,-38370.34563664742,-39585.85585187148,-29120.7243944078,-38761.63527508203
14069.819637515502,5503.513575019071,-28663.027723196476,-35392.042743211125,-38260.24094346058,-39513.547958558556,-29012.676061710845,-38671.1777652714
14173.039993410111,5441.867463811334,-28736.31909326543,-35490.88215719249,-38040.18801929808,-39594.97536360924,-28940.859906775942,-38678.486785708286
14226.773587080668,5388.670312007704,-28813.879646525344,-35550.78483233271,-38114.35110740079,-39669.40667264541,-29033.865515454476,-38758.86365876957
14125.251963764664,5437.799446320468,-28756.480366764114,-35475.16888084041,-38349.37970034834,-39605.07835210304,-29123.227789786793,-38766.39619665101
14064.030535701579,5505.145252364308,-28664.502938330526,-35383.88435648494,-38297.41189448976,-39519.02413595011,-29036.74889048921,-38684.8793846225
14157.840807180502,5465.202685022675,-28711.106325519842,-35449.82200262809,-38061.13160385271,-39578.85975585697,-28941.798680043066,-38673.63645716148
14235.110787762498,5397.812175489924,-28809.498704612102,-35559.256143481274,-38081.382284329215,-39679.68847509485,-29019.202771091794,-38756.80729827968
14152.141112344398,5431.0045160060545,-28772.573622771935,-35500.62751777501,-38322.19997909069,-39626.75954422469,-29124.121859565006,-38779.51667064628
14063.918776979302,5499.2667435725625,-28674.00242972403,-35396.088408957534,-38335.83454320843,-39528.21070292124,-29058.74300703323,-38695.83173940561
14134.103254568965,5476.646778183792,-28699.885749803278,-35442.2671130022,-38102.61644156175,-39563.6382178829,-28951.812261559044,-38666.03686404668
14231.445101671829,5406.730521527591,-28801.340317885915,-35556.03749227971,-38056.10246135026,-39673.497041880735,-28998.34859351499,-38742.70334752838
14168.636699752415,5423.159053702242,-28792.623137548348,-35529.193047188885,-38294.08148456591,-39658.94605624033,-29119.986786840775,-38793.262993486285
14073.50767535063,5508.095682632409,-28671.364923878304,-35393.67442055636,-38355.079395184446,-39523.24861565216,-29071.37174265048,-38704.213643576346
14121.094539295977,5501.747787207101,-28670.15792967772,-35411.15348472041,-38132.768944831965,-39535.60913033594,-28950.82878480301,-38650.34593943905
14219.978656766256,5410.530318084993,-28790.432666591725,-35550.60601837707,-38040.32212976481,-39660.95771324131,-28981.11539853995,-38731.594530534094
14185.400508093895,5406.551707571949,-28809.31989065646,-35552.37180618904,-38257.268161448024,-39673.65350409192,-29110.442591958355,-38801.15315927901
14070.713707293715,5483.531115476027,-28706.05483127294,-35427.71612736179,-38391.132758990854,-39565.02402603913,-29115.33762399407,-38743.083327184126
14097.356986684441,5508.721531477157,-28667.25220289853,-35401.542234604625,-38186.726055947074,-39532.770458790124,-28979.751942128176,-38662.952323311845
14211.797918295613,5431.205681706153,-28767.388018058304,-35523.26983490823,-38027.93926333657,-39641.31052986509,-28961.95995354175,-38713.04258263619
14217.698778831815,5417.9734489886105,-28801.519131841556,-35543.07348049563,-38193.856262428315,-39667.12679471097,-29073.070475229084,-38780.34368519112
14101.782632086592,5491.2871708020175,-28704.40080218325,-35418.23898771274,-38368.40103487981,-39555.03279626761,-29096.159827251417,-38731.86275146756
14096.865248306423,5528.547528809015,-28644.341664831838,-35373.71431275777,-38210.32949809188,-39504.741371243166,-28972.040590291097,-38645.56266612562
14208.176935693853,5455.189103506697,-28736.184982798695,-35490.21160485883,-38015.77991435288,-39611.4485992728,-28931.941560738276,-38682.30893401014
14234.999029040222,5417.392303632772,-28800.535655085525,-35542.91701828445,-38141.37436644726,-39665.04808247663,-29045.84605048252,-38766.284437928734
14118.546440428072,5476.803240394979,-28728.786555383987,-35445.59752292604,-38358.32039813047,-39583.30775300357,-29110.867275103006,-38752.6945772999
14073.842951517458,5516.432883314238,-28661.083121428863,-35377.40235059289,-38266.87941156381,-39513.078571925,-29016.40880303488,-38674.485823450785
14183.14298190391,5468.801315879979,-28724.74088963758,-35468.373950525995,-38038.33282450829,-39588.001619339186,-28940.792851542577,-38678.64324791947
14234.95432555131,5408.0492744504545,-28809.208131934185,-35544.32517818513,-38106.86327300826,-39672.49121338024,-29035.519544544168,-38759.42245238095
14142.172234317331,5462.2299030101185,-28746.332674781406,-35454.40411024143,-38336.10276414189,-39591.89082287441,-29115.918769349908,-38751.71110054387
14075.631091073883,5524.56891829597,-28656.746883004533,-35365.86885045396,-38299.51295846856,-39500.539243285566,-29031.295064842114,-38668.8755355925
14162.445266538296,5480.066595085454,-28705.83131382839,-35440.121345534484,-38062.1821358421,-39564.152308005374,-28940.278761420104,-38659.89013432147
14239.983468053755,5409.725655284603,-28802.83788476442,-35541.0394717502,-38071.70397898006,-39661.78472778615,-29011.156143087883,-38744.98322546283
14155.985612390712,5437.1065422423535,-28772.484215794113,-35491.68681999288,-38314.08629585341,-39621.39512555541,-29119.00331008474,-38777.23679271183
14073.127695694888,5518.042208915021,-28665.553470319926,-35373.22257437975,-38326.46916228165,-39513.905586469846,-29053.02096045267,-38686.376951501006
14138.12656857092,5491.778909180035,-28695.19188346766,-35418.19428422383,-38099.710714782566,-39555.68099685681,-28947.856002790453,-38645.31679693661
14235.736636607247,5417.861690266334,-28795.88649223882,-35531.53998035669,-38048.25699904645,-39645.98204445625,-28988.178549787826,-38716.84237919359
14171.14009513141,5423.874309524812,-28794.79125676051,-35513.882102237,-38281.92213558223,-39632.682756505346,-29110.107315791527,-38770.57597286415
14070.758410782626,5508.475662288149,-28687.301717674938,-35402.12337996047,-38365.271790656065,-39527.58485407649,-29084.08988524555,-38703.05135286467
14112.913800825334,5505.0781971309425,-28680.05975247142,-35401.02814448215,-38146.179991505145,-39530.937615744784,-28964.06101752055,-38648.826020816094
14222.347941678518,5426.64592583727,-28786.141131656306,-35522.44282036339,-38034.130696550696,-39645.84793398952,-28971.280630979614,-38705.42063777693
14196.129345432442,5421.616783334825,-28798.009907962074,-35516.631366805006,-38237.64332981627,-39650.02771020266,-29091.577719638077,-38766.32914141764
14085.845838289957,5502.463043029671,-28693.24728170005,-35400.29053691513,-38374.12308146037,-39541.44293563878,-29098.149132507937,-38716.06006813766
14103.749585598658,5525.686505518735,-28660.949010962133,-35383.07969368454,-38184.781454179465,-39517.81714174952,-28976.041552548595,-38648.6695586049
14213.228429940753,5443.40973417875,-28759.631962732314,-35489.38459031398,-38022.865417345216,-39623.31737557857,-28951.409930158847,-38688.2321462908
14212.826098540558,5416.609992576837,-28807.12941969984,-35527.29314891018,-38195.823215940385,-39662.52233535318,-29071.461149628303,-38765.27860942824
14088.438640646773,5479.396042751795,-28722.170439025216,-35425.97269129428,-38384.02490425407,-39567.81799409604,-29111.582530925578,-38733.0920974126
14079.520294609107,5515.874089702856,-28665.10643543082,-35377.53646105963,-38240.638463573276,-39515.649022537356,-29000.65082319389,-38654.39160518546
14201.985502479733,5454.540902917493,-28741.795270656978,-35479.61687798701,-38029.034498814886,-39606.64297421491,-28940.412871886838,-38668.495555936766
14222.347941678518,5399.466204579617,-28815.287806426026,-35546.0909659971,-38155.32185498737,-39677.7662250717,-29056.95486747681,-38759.087176214125
14107.83995483398,5456.686670385203,-28735.357968253848,-35438.40026121143,-38369.71978780267,-39577.87627910093,-29119.159772295927,-38740.825800994135
14057.123846664888,5500.473737773149,-28664.793511008444,-35368.9980946777,-38283.77733037202,-39512.430371335795,-29021.527352515146,-38658.906657565436
14152.811664678058,5436.860673053346,-28724.651482659756,-35459.142680065954,-38052.39207177068,-39590.95204960729,-28943.96679925523,-38660.53833491067
14206.18763043733,5368.866666420301,-28804.402506876293,-35540.68184383892,-38110.528959098934,-39672.871193035986,-29030.02101540816,-38742.39042310601
14097.111117495433,5403.847146492857,-28748.16551782674,-35454.09118581905,-38346.51867705806,-39597.9481456218,-29119.22682752929,-38750.705272043386
13999.456345970197,5444.8849493128,-28661.68661852916,-35367.65699001038,-38313.37104003084,-39502.997935175656,-29039.967541690774,-38664.31577972362
14071.004279971634,5392.939495198667,-28704.78078183899,-35435.91921757689,-38072.19571735808,-39561.291284715095,-28939.38469164189,-38645.473259147795
14120.714559640237,5272.977682707034,-28815.310158170483,-35548.080271253624,-38079.974124428525,-39673.29587618064,-29015.31356755657,-38738.9929579488
14018.924715390769,5286.254618913486,-28781.603727531878,-35479.86274717603,-38316.142656343305,-39621.30571857759,-29118.75744089573,-38762.86462102707
13893.03969061848,5335.093180548332,-28678.137502448262,-35369.847460967,-38336.86272345337,-39505.5236822991,-29053.199774408316,-38670.19428851537
13912.731577483604,5261.958272690567,-28717.878904089797,-35434.891037331945,-38117.793276046905,-39558.65377886937,-28956.908459294853,-38649.116593494015
13965.615804864861,5146.0197742008895,-28836.164335747286,-35559.63612313702,-38067.79242370038,-39679.73317858377,-29006.685794196823,-38733.04739392369
13885.663614948227,5133.949832195024,-28833.95151304621,-35539.07251823813,-38299.20003404618,-39654.74392828273,-29127.76519391122,-38782.377693936556
13769.121619358257,5203.9554958290455,-28721.812811113934,-35415.98146152276,-38380.96271526369,-39537.12904895891,-29098.596167397045,-38706.649983721974
13804.035044197446,5199.5522021713505,-28706.814790584423,-35407.085467229546,-38154.785413120444,-39528.74714478817,-28970.475968179224,-38642.23225620178
13901.265132578032,5102.590334724228,-28803.55314058699,-35523.15807618595,-38030.44265871557,-39633.48741930573,-28969.000753045173,-38693.641268448984
13861.277861747487,5079.232761768432,-28832.878629312352,-35544.81691656315,-38238.00095772755,-39659.50484985171,-29099.28907147516,-38767.334969918134
13731.414226462153,5141.392963098641,-28741.661160190244,-35435.5615896656,-38391.713904346696,-39566.09690977298,-29120.210304285327,-38731.14749564499
13728.262630493955,5140.811817742803,-28718.236532001083,-35435.82981059907,-38215.58215803887,-39550.651854354364,-29008.138657586416,-38671.89302109397
13848.470312174597,5068.3027587297875,-28814.438440136724,-35544.34752992958,-38048.949903124565,-39662.879963264466,-28983.93171834132,-38713.020230891736
13847.486835418564,5046.375697419131,-28858.918411602786,-35589.408646751486,-38208.675469002184,-39696.631097391975,-29094.014059783705,-38783.115301503574
13715.075101265324,5106.948924893013,-28778.563890285957,-35473.82777617309,-38404.45439868622,-39611.11332310597,-29140.930371395396,-38759.46715586986
13685.257874161945,5122.259869844898,-28732.072261818917,-35429.57132215158,-38275.14955701227,-39547.32144443053,-29036.011282922183,-38676.76570138523
13799.341177861832,5062.133677260123,-28813.343204658417,-35544.235771207306,-38067.65831323365,-39651.36881486998,-28979.93075608382,-38696.21171906134
13841.496567904542,5033.031705979312,-28874.13994957685,-35599.176359078454,-38173.806747651906,-39709.52805394269,-29081.631193355464,-38780.36603693558
13740.28786901091,5097.158860821589,-28788.152788657284,-35488.40111355795,-38380.940363519236,-39607.55939573758,-29137.24233356027,-38765.32331291716
13690.912865509137,5143.87400673318,-28716.35898546684,-35418.84248481304,-38299.26708927954,-39536.79377279208,-29045.108442915494,-38681.414864231934
13801.35283486281,5099.036407355834,-28776.954564685177,-35508.51768356773,-38073.93915342559,-39611.11332310597,-28966.49735766618,-38664.51694542372
13875.493571221063,5052.298909699787,-28865.512176217104,-35599.98102187884,-38132.38896517622,-39700.65441139393,-29054.965562220284,-38753.543943589204
13800.458765084597,5118.705942476505,-28816.98653900463,-35530.13182045601,-38369.02688372456,-39641.17641939836,-29147.278266820704,-38772.94525777641
13738.410322476664,5191.55027765635,-28725.63495941579,-35432.18647625286,-38343.85881946788,-39548.43903165329,-29071.259983928205,-38688.36625675753
13831.997076511036,5156.726259794982,-28767.723294225132,-35490.41277055893,-38110.26073816547,-39603.021991613154,-28975.013372303652,-38668.540259425674
13940.961830730657,5117.7895209538365,-28854.246897011628,-35579.70798965788,-38097.944926970595,-39691.19962348934,-29032.859686953987,-38745.0949841851
13884.32251028091,5166.538675610862,-28824.496725141613,-35531.76349780124,-38330.91715942826,-39649.7594892692,-29138.67284520541,-38773.705217087896
13802.895105230225,5244.4568567820625,-28725.143221037775,-35420.8094383251,-38372.267886670576,-39548.26021769765,-29094.32698420608,-38697.70928593985
13878.958091611636,5234.13035084371,-28734.68741592019,-35447.83269737157,-38140.16737224667,-39568.30973247406,-28980.780122373122,-38654.95039879685
14002.540886705028,5182.319007196308,-28830.554047889003,-35559.90434407048,-38067.70301672257,-39670.12192846798,-29011.73728844372,-38724.17375137493
13957.122141971844,5204.402530718152,-28835.627893880355,-35547.47677415333,-38296.45076947818,-39665.04808247663,-29132.57081896911,-38779.87429855756
13857.723934379093,5295.217668440065,-28733.25690427505,-35421.36823193648,-38397.63711662735,-39559.72666260322,-29114.46590596031,-38716.73062047132
13919.928839198214,5320.743360608025,-28702.187979482173,-35415.802647567114,-38169.26934352748,-39547.99199676418,-28976.98032581572,-38646.255570203735
14045.031552914566,5258.538455788906,-28799.663937051766,-35525.303843653666,-38035.33769075128,-39642.07048917657,-28970.20774724576,-38694.87061439403
14017.561258978994,5241.796999191881,-28832.386890934336,-35540.92771302792,-38238.269178661016,-39667.059739477605,-29098.260891230213,-38764.58570535013
13918.99006593109,5333.081523547355,-28726.26080826054,-35418.99894702422,-38381.990895508636,-39554.63046486741,-29106.66514714541,-38710.67329772393
13941.028885964024,5366.385622785762,-28687.7711043085,-35394.23321416774,-38201.14293112075,-39524.63442380839,-28982.25533750717,-38632.688061319364
14068.210311914721,5301.409101654184,-28780.55319554248,-35508.852959734555,-38027.80515286984,-39629.50880879269,-28954.315656938037,-38675.335189740086
14088.706861580236,5287.23809566952,-28825.36844317537,-35544.436936907405,-38181.85337565582,-39665.83039353257,-29070.388265894446,-38749.230056909335
13973.81889507996,5356.327337780874,-28748.07611084892,-35443.18353452486,-38384.561346120994,-39579.887936101906,-29122.24431303076,-38723.72671648583
13962.821836807947,5403.243649392563,-28684.641860084757,-35383.660839040385,-38250.04854798896,-39527.07076395402,-29007.579863975036,-38642.36636666851
14084.571788856005,5347.900730121223,-28765.242250590596,-35483.416674544416,-38040.45624023154,-39610.286308561124,-28949.82295630252,-38664.24872449025
14131.018713834133,5312.093235503821,-28831.962207789686,-35548.013216020256,-38146.73878511653,-39672.938248269355,-29057.5583645771,-38747.77719351974
14042.863433702403,5389.318512596907,-28745.17038406973,-35438.62377865598,-38356.24168589612,-39576.75869187817,-29115.248217016248,-38717.7364489718
14001.378595993352,5446.360164446851,-28664.01119995251,-35358.35866431698,-38275.39542620128,-39505.05429566554,-29017.68285246883,-38631.21284618531
14102.69905360926,5390.25728586403,-28733.994511842076,-35461.78018591168,-38054.046100860374,-39588.11337806146,-28945.039682989085,-38643.394546913456
14173.33056608803,5332.880357847257,-28819.355823916892,-35548.88493405401,-38103.756380528976,-39680.9178210399,-29026.444736295314,-38725.42544906443
14085.711727823225,5377.628550246782,-28767.16450061375,-35468.508060992724,-38338.20382812069,-39613.303794062595,-29119.115068807016,-38736.89189397
14011.146308320322,5444.236748723597,-28677.6681158147,-35379.101083171496,-38320.63535697882,-39512.430371335795,-29044.12496615946,-38652.91639005142
14108.64461763437,5422.041466479477,-28704.06552601642,-35427.38085119496,-38069.75937721245,-39554.5857613785,-28929.05818570354,-38615.208997155314
14203.036034469133,5359.970672127089,-28799.485123096125,-35530.15417220046,-38052.637940959685,-39655.19096317184,-28987.59740443199,-38693.66362019344
14128.470614966229,5385.675178250692,-28779.63677401981,-35487.28352633519,-38298.88710962381,-39628.614739014476,-29106.195760511848,-38735.32727185813
14035.509709776607,5457.22311225213,-28677.690467559158,-35370.8979929564,-38345.89282821331,-39519.001784205655,-29066.6108210815,-38664.65105589045
14109.784556601591,5453.691536628192,-28679.29979315994,-35395.23904266823,-38107.19854917509,-39533.23984542368,-28942.290418421082,-38613.48791283225
14212.691988073826,5378.433213047173,-28781.51432055406,-35507.5789103006,-38030.01797557092,-39641.01995718717,-28968.799587345075,-38679.91729735342
14169.217845108253,5390.547858541949,-28781.022582176043,-35482.05321813264,-38249.89208577777,-39629.62056751497,-29087.17442598038,-38728.77821073273
14063.181169412277,5466.633196667814,-28680.506787360526,-35364.974780675744,-38356.956941718694,-39521.10284818445,-29075.61857409699,-38662.84056458957
14101.000321030657,5469.494219958094,-28664.122958674787,-35363.9466004308,-38144.39185194872,-39516.45368533775,-28952.30399993706,-38604.18958713885
14206.925238004356,5385.474012550594,-28776.663992007256,-35497.2300526178,-38022.597196411756,-39637.980119941254,-28959.858889562955,-38673.21177401683
14187.926255217346,5373.985215900567,-28805.385983632324,-35514.68676503739,-38219.04667842945,-39660.08599520755,-29085.27452770168,-38747.35251037509
14083.275387677597,5460.754687876069,-28692.643784599757,-35383.102045429,-38361.226124909655,-39537.933711759295,-29091.153036493426,-38687.002800345756
14096.84289656197,5491.845964413401,-28640.96655141909,-35350.580257246525,-38174.67846568566,-39500.136911885376,-28957.86958430643,-38603.675497016375
14209.942723505823,5414.620687320315,-28742.421119501727,-35469.089206348566,-38003.12882699118,-39606.84413991501,-28933.796755528067,-38649.16129698292
14205.181801936842,5370.1854193431645,-28806.391812132813,-35528.67895706641,-38169.93989586114,-39664.62339933198,-29064.733274547252,-38741.76457426126
14101.670873364315,5452.976280805621,-28704.512560905525,-35407.64426084093,-38355.16880216227,-39560.33015970352,-29097.679745874375,-38707.47699826682
14091.947864526257,5508.56506926597,-28626.974359390064,-35342.198353075786,-38213.570501037895,-39493.833719948976,-28969.760712356656,-38614.91842447739
14192.70952853078,5433.150283473764,-28718.81767735692,-35458.96386611031,-38009.43201892758,-39595.91413687637,-28917.658796031334,-38642.053442246135
14232.607392383505,5389.698492252647,-28794.83596024942,-35534.40100364697,-38116.51922661295,-39663.39405338694,-29022.309663571083,-38730.74516424479
14133.186833046298,5453.825647094924,-28717.074241289407,-35425.99504303873,-38331.05126989499,-39570.74607261969,-29081.452379399823,-38715.27775708172
14083.923588266802,5509.436787299727,-28635.110394371797,-35343.49475425419,-38254.250675946554,-39489.60924024692,-28983.97642183023,-38627.63656707246
14175.543388789105,5454.138571517297,-28703.663194616223,-35439.517848434196,-38028.609815670236,-39568.53324991861,-28906.639386014867,-38636.0184712432
14228.494671403727,5387.105689895831,-28803.26256790907,-35532.99284374629,-38081.315229095846,-39666.05391097712,-28999.086201082016,-38734.544960802195
14141.680495939316,5437.419466664728,-28750.668913205733,-35455.7675666532,-38316.835560421416,-39600.60800321198,-29091.398905682436,-38751.42052786595
14066.489227591663,5503.46887153016,-28654.62346728128,-35354.00007414819,-38302.53044397002,-39501.90269969734,-29017.235817579727,-38665.56747741312
14151.783484433114,5476.155039805775,-28686.362944407818,-35411.22053995378,-38058.00235962896,-39548.66254909785,-28906.974662181696,-38632.30808166362
14238.53060466416,5405.411768604728,-28790.142093913808,-35525.61676807603,-38041.55147570986,-39647.41255610139,-28966.385598943903,-38710.494483768285
14171.922406187345,5433.55261487396,-28762.291820322494,-35475.302991307144,-38274.94839131217,-39605.50303524769,-29073.361047907,-38740.31171087166
14069.283195648575,5503.312409318974,-28666.24637439804,-35368.975742933246,-38328.48081928263,-39500.114560140915,-29034.290198599127,-38672.250649005255
14121.072187551521,5480.267760785551,-28682.58549959487,-35412.56164462109,-38104.71750554055,-39531.1834849338,-28924.16315366783,-38638.03012824418
14226.840642314035,5406.842280249868,-28785.8952624673,-35534.04337573569,-38023.558321423334,-39647.0102247012,-28954.02508426012,-38714.45074253687
14171.587130020516,5403.713036026124,-28799.932157985233,-35524.32036689763,-38250.964969511624,-39652.55345732611,-29087.688516102855,-38784.456406170895
14067.875035747891,5487.554429477982,-28687.39112465276,-35392.668592055874,-38354.520601573066,-39528.76949653262,-29068.7118850603,-38713.71313496985
14105.917704810823,5500.049054628498,-28663.38535110776,-35390.27695539915,-38142.44725018111,-39514.10675216994,-28940.904610264854,-38646.50143939274
14221.453871900305,5424.634268836292,-28761.93419241121,-35514.28443363719,-38003.911138047115,-39625.86547444647,-28934.936694495285,-38697.642230706486
14207.506383360194,5412.519623341515,-28790.07503868044,-35531.47292512333,-38193.92331766168,-39647.636073545946,-29057.580716321554,-38768.452557140896
14088.88567553588,5487.733243433624,-28689.715706076113,-35413.27690044366,-38350.474935826656,-39537.12904895891,-29072.310515917605,-38718.3399460721
14089.153896469343,5511.314333833973,-28647.493260800038,-35385.24781289671,-38180.55697447741,-39502.506196797636,-28951.097005736472,-38639.77356431169
14213.541354363128,5446.762495847046,-28730.12766005131,-35490.79275021467,-37994.7692745649,-39604.564261980566,-28912.137915150874,-38671.3789309715
14215.441252641827,5401.410806347229,-28793.517207326557,-35541.777079317224,-38148.66103513969,-39663.32699815357,-29032.725576487253,-38757.5002023578
14098.0275390181,5465.940292589699,-28709.742869108068,-35438.48966818925,-38350.11730791537,-39565.001674294675,-29082.100579989026,-38733.829704979624
14073.127695694888,5505.9499151647,-28646.129804388263,-35382.386789606426,-38229.730812279086,-39502.282679353084,-28975.840386848497,-38651.016491772716
14190.317891874063,5452.439838938694,-28714.213217999128,-35476.44293027436,-38007.88974856016,-39579.59736342399,-28905.76766798111,-38657.96788429831
14225.276020202164,5398.683893523681,-28794.36657361586,-35545.33100668562,-38108.67376430914,-39659.50484985171,-29012.094916355007,-38748.98418772032
14122.74856838567,5461.626405909826,-28725.25497976005,-35452.660674173916,-38333.755830974085,-39579.4409012128,-29090.90716730442,-38744.893818485005
14065.59515781345,5517.729284492646,-28643.693464242635,-35372.86494646847,-38266.34296969688,-39496.203004861236,-29004.607081962477,-38660.158355254935
14164.9933654062,5471.774097892535,-28702.322089948906,-35451.36427299551,-38034.15304829515,-39565.627523139425,-28921.279778633092,-38655.486840663776
14237.681238374858,5413.570155330915,-28789.98563170262,-35535.295073425186,-38064.886696921196,-39653.425175359866,-28997.40982024787,-38734.20968463537
14140.160577316354,5446.2037022356635,-28749.953657383165,-35466.11642433601,-38305.72674342713,-39600.987982867715,-29098.015022041207,-38751.465231354865
14060.387201355363,5510.777891967045,-28656.411606837704,-35368.77457723315,-38306.17377831624,-39505.791903232566,-29033.373777076456,-38671.624800160505
14139.534728471606,5481.407699752772,-28690.38625840977,-35430.19717099633,-38065.356083554754,-39552.328235188514,-28931.78509852709,-38645.69677659235
14225.566592880083,5405.8811552382895,-28797.07113469495,-35551.88006781102,-38044.30074027786,-39668.35614065601,-28993.20769229027,-38733.650891023986
14162.46761828275,5432.569138117926,-28767.589183758402,-35495.285450850184,-38278.457615191655,-39630.33582333754,-29097.791504596655,-38768.60901935209
14070.557245082528,5513.437749557227,-28656.456310326615,-35377.15648140389,-38326.29034832601,-39508.54116780057,-29048.483556328247,-38682.46539622133
14132.56098420155,5505.905211675788,-28656.612772537803,-35395.64137406843,-38093.38517110171,-39510.86574922392,-28922.173848411305,-38618.852331501526
14239.648191886925,5426.847091537367,-28756.681532464212,-35512.47394233631,-38002.63708861316,-39623.36207906748,-28938.669435819324,-38683.24770727727
14197.515153588673,5434.446684652172,-28761.889488922297,-35497.49827355126,-38215.62686152779,-39620.07637263255,-29054.876155242462,-38738.456516081875
14073.060640461523,5502.887726174322,-28670.33674363336,-35383.794949507115,-38341.89186595582,-39520.43229585079,-29055.636114553945,-38683.47122472182
14102.40848093134,5512.56603152347,-28646.308618343905,-35380.48689132773,-38139.87679956875,-39507.043600922065,-28934.534363095092,-38620.34989838003
14229.500499904216,5443.8567690678565,-28735.82735488741,-35498.41469507393,-37986.655591327624,-39610.8003986836,-28918.351700109448,-38670.35075072655
14217.117633475977,5429.149321216264,-28767.186852358205,-35519.492390095285,-38164.95545684761,-39629.50880879269,-29033.776108476653,-38739.507048071275
14084.21416094472,5486.638007955314,-28685.8712060298,-35409.47710388626,-38340.886037455326,-39534.29037741308,-29068.130739704462,-38705.21947207683
14087.656329590838,5517.416360070272,-28633.34460655983,-35365.8464987095,-38172.465642984585,-39489.631591991376,-28944.01150274414,-38623.90382574843
14203.237200169231,5445.957833046656,-28726.64078791628,-35484.98129665629,-37986.14150120515,-39593.67896243083,-28908.248711615648,-38655.86682031951
14222.996142267722,5421.616783334825,-28781.8943002098,-35531.69644256788,-38130.33260468634,-39643.07631767706,-29026.51179152868,-38738.65768178197
14099.45805066324,5477.071461328443,-28708.759392352033,-35430.30892971861,-38344.26115086808,-39561.000712037174,-29091.220091726795,-38727.16888513194
14066.645689802848,5519.0480374155095,-28641.413586308194,-35370.495661556204,-38231.78717276897,-39500.94157468576,-28986.949203842785,-38639.527695122684
14182.204208636787,5469.673033913736,-28710.703994119645,-35459.67912193288,-38011.108399761724,-39575.50699418867,-28918.48581057618,-38647.015529515214
14230.171052237876,5418.621649577814,-28787.616346790357,-35534.62452109152,-38094.99449670249,-39649.89359973593,-29017.951073402295,-38731.549827045186
14117.786481116591,5461.514647187549,-28734.30743626445,-35452.39245324045,-38332.48178154013,-39584.44769197079,-29106.151057022937,-38735.75195500278
14062.555320567528,5520.500900805104,-28638.776080462467,-35345.841687422006,-38265.158327240744,-39485.25065007814,-29009.479762253733,-38639.058308489126
14157.505531013672,5470.298882758485,-28692.621432855303,-35427.9619965508,-38024.251225501444,-39548.95312177576,-28920.07278443251,-38629.78233454017
14227.399435925417,5404.495347082061,-28786.856387478878,-35528.54484659968,-38056.81771717283,-39642.62928278796,-29002.483666239223,-38716.55180651567
14138.014809848644,5444.415562679239,-28743.985741613596,-35464.64120920196,-38295.24377527759,-39602.530253235134,-29097.41152494091,-38736.511914314266
14052.675849518282,5506.464005287172,-28650.041359667943,-35351.206106091275,-38298.238909034604,-39485.63062973388,-29033.7537567322,-38653.63164587398
14136.27137378113,5484.402833509784,-28672.57191807889,-35400.46935087077,-38055.945999139076,-39524.6791272973,-28923.649063545356,-38621.62394781398
14223.554935879105,5405.903506982745,-28778.116855396853,-35524.00744247525,-38023.31245223433,-39634.1579716394,-28977.270898493636,-38699.162149329444
14153.884548411912,5420.052161222954,-28771.545442526993,-35506.21545388883,-38270.18746974319,-39625.664308746374,-29104.921711077895,-38753.43218486693
14058.263785632109,5503.312409318974,-28656.72453126008,-35367.32171384355,-38321.954109901686,-39502.997935175656,-29057.468957599278,-38669.76960537072
14104.1295652544,5481.787679408512,-28659.831423739368,-35385.31486813007,-38093.340467612805,-39512.54213005807,-28937.44008987428,-38615.87954948897
14212.870802029467,5409.122158184309,-28762.02359938903,-35513.09979118106,-37999.8207688118,-39620.34459356601,-28959.12128199593,-38681.86189912104
14164.702792728282,5398.907410968234,-28771.433683804713,-35499.86755846352,-38215.872730716794,-39621.52923602214,-29078.926632276372,-38740.267007382754
14035.085026631956,5455.703193629169,-28670.180281422174,-35384.46550184077,-38333.57701701844,-39509.65875502333,-29069.315382160592,-38679.62672467551
14047.043209915544,5452.395135449784,-28651.516574801994,-35386.924193730854,-38136.747555345006,-39502.93087994229,-28950.337046424993,-38618.20413091232
14150.017696621144,5369.693680965148,-28758.961410398653,-35513.546826070175,-37995.50688213192,-39624.25614884569,-28946.33608416749,-38677.704474652346
14098.094594251466,5306.505299389994,-28800.46859985216,-35530.824724534126,-38182.680390200665,-39671.530088368665,-29073.897489773928,-38758.05899596918
13965.280528698031,5361.825866916879,-28695.549511378947,-35395.08258045704,-38342.22714212265,-39528.59068257698,-29088.582585881068,-38703.006649375755
13924.689760767194,5348.794799899435,-28652.85767946931,-35367.14289988791,-38178.07593084287,-39489.76570245811,-28968.39725594488,-38623.30032864813
13996.349453490908,5233.057467109856,-28765.51047152406,-35507.109523667044,-38001.29598394585,-39627.206579113794,-28941.68692132079,-38672.742387383274
13971.941348545713,5157.061535961811,-28838.958303804196,-35562.87712608303,-38149.77862236245,-39667.73029181126,-29065.89556525893,-38760.87531577055
13822.519936861985,5190.812670089325,-28762.135358111307,-35463.92595337939,-38366.612895323386,-39576.535174433615,-29125.86529563252,-38739.68586202692
13770.708593214584,5221.389856504185,-28689.559243864926,-35389.62875480995,-38254.29537943547,-39516.408981848836,-29018.532218758133,-38652.804631329134
13868.408068228731,5152.099448692733,-28757.955581898164,-35507.377744600504,-38019.06562078781,-39593.03076184163,-28943.475060877212,-38658.83960233207
13903.433251790197,5084.373662993153,-28835.404376435803,-35557.870335325046,-38102.16940667265,-39666.70211156632,-29043.54382080362,-38745.13968767401
13798.536515061442,5130.082980404256,-28760.97306739963,-35460.46143298881,-38328.659633238276,-39587.39812223889,-29116.589321683565,-38738.3447573596
13730.631915406218,5174.6076553592275,-28680.14915944924,-35390.366362376975,-38278.949353569675,-39503.17674913129,-29035.22897186625,-38657.4761459203
13821.06707347239,5126.171425124577,-28737.704901421657,-35479.125139609,-38049.06166184684,-39569.85200284148,-28948.325389424015,-38642.56753236861
13884.724841681105,5054.757601589871,-28834.242085724127,-35581.60788793658,-38071.61457200225,-39677.72152158279,-29022.913160671374,-38731.86275146756
13782.577369520352,5076.7517181338935,-28794.344221871404,-35515.04439294868,-38312.834598163914,-39627.2512826027,-29121.90903686393,-38755.8461732681
13699.294769679878,5149.417239358097,-28698.544645135957,-35412.62869985446,-38322.33408955742,-39511.60335679095,-29056.105501187507,-38665.50042217975
13792.255674869499,5139.984803197957,-28719.86820934632,-35464.663560946414,-38077.24721160498,-39554.5857613785,-28940.167002697828,-38636.28669217667
13871.470257219107,5061.150200504088,-28833.616236879378,-35585.31827751616,-38046.558266467844,-39667.0150359887,-28996.962785358763,-38721.9385769294
13807.678378543662,5075.567075677762,-28825.726071086654,-35552.215343977856,-38288.35943798535,-39648.48543983525,-29120.791449641165,-38769.078405985645
13722.272362979933,5163.4541348760295,-28720.06937504642,-35438.333205978066,-38357.96277021918,-39542.426412394816,-29089.18608298136,-38699.89975689647
13781.34802357531,5162.560065097817,-28719.242360501572,-35463.143642323455,-38135.09352625532,-39549.7354328317,-28966.45265417727,-38641.159372467926
13899.789917443983,5094.208430553488,-28823.401489663305,-35584.89359437151,-38037.19288554107,-39665.1598411989,-28986.792741631598,-38707.36523954454
13882.46731549112,5111.687494717538,-28834.107975257397,-35568.062730796664,-38246.27110317601,-39658.34255914004,-29108.363879724013,-38767.133804218036
13785.326634088355,5203.88844059568,-28729.05477631745,-35454.471165474795,-38372.17847969276,-39552.6858630998,-29106.396926211946,-38709.39924828998
13824.665704329695,5235.337345044297,-28698.85756955833,-35437.0144530552,-38170.27517202797,-39533.48571461269,-28977.44971244928,-38633.515075864205
13952.607089591873,5173.31125418082,-28799.775695774046,-35553.77996608972,-38021.99369931146,-39649.7594892692,-28966.832633833008,-38687.09220732358
13958.507950128074,5167.49980062244,-28836.924295058765,-35581.362018747575,-38198.43837004166,-39678.615591361,-29087.95673703632,-38759.95889424788
13851.554852909429,5254.2022173645755,-28740.990607856587,-35457.57805795408,-38373.34077040444,-39566.49924117318,-29117.729260650787,-38715.389515803996
13858.148617523744,5303.443110399618,-28690.85564504333,-35417.970766779275,-38219.00197494054,-39523.6285953079,-28999.667346437855,-38635.45967763182
13984.726546374148,5245.5744440048275,-28775.389942573303,-35531.47292512333,-38019.89263533266,-39621.88686393343,-28954.852098804964,-38666.37214021351
14014.409663010796,5215.332533756797,-28839.71826311568,-35583.91011761548,-38153.62312240877,-39681.99070477375,-29068.488367615744,-38751.77815577724
13913.916219939736,5290.367339893262,-28757.732064453612,-35479.39336054246,-38363.461299355185,-39585.274706515636,-29126.535847966177,-38729.96285318886
13888.949321383157,5348.683041177159,-28683.68073507318,-35403.509188116695,-38256.508202136545,-39511.8268742355,-29020.342710059012,-38639.3712329115
14002.183258793744,5292.356645149785,-28759.07316912093,-35499.19700612986,-38038.35517625275,-39601.99381136821,-28956.26025870565,-38654.79393658566
14055.268651875098,5240.232377080009,-28844.747405618124,-35587.48639672832,-38120.9001685262,-39695.33469621357,-29058.675951799865,-38749.25240865379
13971.315499700964,5311.8473663148125,-28774.92055593974,-35488.6246310025,-38347.41274683628,-39603.60313696899,-29135.565952726123,-38747.73249003082
13924.354484600364,5393.833564976879,-28674.315354146405,-35388.8017402651,-38288.89587985228,-39505.993068932665,-29040.235762624237,-38653.43048017388
14026.881936416858,5361.468239005594,-28721.72340413611,-35467.16695632541,-38051.6321124592,-39576.35636047797,-28945.754938811653,-38639.058308489126
14111.148013013366,5298.8162992973685,-28820.026376250553,-35570.14144303101,-38070.407577801656,-39679.017922761195,-29020.633282736933,-38723.86082695256
14037.722532477681,5340.591709684338,-28779.25679436407,-35502.54976779816,-38307.470179494645,-39619.718744721264,-29118.109240306527,-38742.9939202063
13958.843226294903,5418.040504221976,-28676.550528591935,-35386.54421407512,-38319.11543835586,-39499.30989734053,-29055.569059320576,-38654.346901696554
14033.58745975345,5391.754852742535,-28704.15493299424,-35436.94739782184,-38080.197641873085,-39543.879275784406,-28948.63831384639,-38622.00392746973
14129.789367889092,5316.652991372704,-28812.38207964684,-35555.67986436842,-38040.05390883135,-39661.51650685269,-28999.689698182312,-38707.00761163326
14078.31330040852,5340.144674795231,-28791.527902070036,-35519.29122439519,-38265.53830689649,-39639.18711414184,-29107.983900068273,-38750.124126687544
13979.026851538045,5419.292201911474,-28685.446522885148,-35396.580147335546,-38339.32141534345,-39524.07563019701,-29076.7138095753,-38675.49165195128
14038.035456900056,5422.510853113038,-28677.198729181142,-35411.3099469316,-38117.77092430245,-39522.846284251966,-28955.54500288308,-38614.225520399275
14160.1430368594,5357.936663381656,-28769.80200645948,-35518.88889299499,-38001.832425812776,-39623.18326511184,-28957.62371511742,-38666.14862276895
14130.817548134035,5359.501285493528,-28786.83403573442,-35513.83739874809,-38208.38489632427,-39631.29694834912,-29079.55248112112,-38733.069745668145
14011.43688099824,5430.445722394672,-28694.34251717836,-35391.46159785528,-38350.027900937544,-39529.46240061073,-29093.09763826104,-38683.001838088254
14023.953857893213,5435.117236985831,-28675.321182646894,-35394.68024905685,-38168.39762549372,-39523.472133096715,-28982.702372396277,-38621.0651542026
14156.790275191102,5376.06392813491,-28757.955581898164,-35501.588642786584,-38000.11134148972,-39617.99766039821,-28957.288438950593,-38663.53346866769
14153.258699567165,5357.8025529149245,-28800.088620196417,-35526.399079131974,-38174.07496858537,-39649.714785780285,-29078.256079942716,-38738.07653642613
14034.190956853743,5429.998687505566,-28711.5757121534,-35411.131132975956,-38359.59444756442,-39541.66645308334,-29113.258911759727,-38695.47411149432
14032.06754113049,5472.7352229041135,-28646.48743229955,-35361.39850156289,-38200.07004738689,-39491.307972825525,-28986.703334653776,-38607.47529357378
14153.884548411912,5414.397169875761,-28730.865267618334,-35475.28063956268,-37995.886861787665,-39584.11241580396,-28933.975569483708,-38631.570474096596
14175.163409133365,5368.129058853276,-28804.469562109658,-35523.806276775154,-38129.59499711931,-39647.0102247012,-29051.679855785354,-38719.926919928424
14058.196730398742,5427.584699104393,-28732.318131007927,-35432.47704893077,-38350.653749782294,-39567.706235373764,-29118.869199618006,-38708.01344013375
14023.685636959748,5481.60886545287,-28655.025798681476,-35363.99130391971,-38251.680225334196,-39493.543147271055,-29013.614834977965,-38618.762924523704
14133.812681891046,5429.506949127549,-28719.175305268207,-35452.75008115174,-38018.5738824098,-39563.97349404973,-28933.282665405593,-38618.22648265678
14183.590016793016,5371.146544354742,-28807.509399355582,-35535.45153563637,-38091.373514100735,-39651.0111869587,-29029.752794474698,-38707.32053605563
14089.399765658352,5430.892757283778,-28743.717520680133,-35449.509078205716,-38325.44098203671,-39588.73922690621,-29115.494086205257,-38711.254443079764
14023.752692193115,5494.081138858931,-28651.494223057536,-35360.72794922924,-38284.604344916865,-39491.95617341473,-29032.010320664685,-38624.52967459318
14111.550344413561,5449.489408670594,-28699.170493980706,-35430.0630605296,-38052.012092114936,-39554.45165091177,-28940.524630609114,-38612.23621514276
14197.470450099761,5388.156221885231,-28785.001192689087,-35517.97247147232,-38053.77787992691,-39648.77601251317,-29002.751887172686,-38689.75206491376
14121.60862941845,5423.74019905808,-28748.299628293473,-35458.40507249893,-38290.885185108804,-39596.11530257646,-29107.38040296798,-38717.42352454943
14028.468910273185,5493.701159203191,-28650.220173623584,-35350.312036313066,-38312.47697025263,-39495.44304554976,-29052.909201730396,-38635.66084333192
14097.379338428897,5470.544751947493,-28673.756560535025,-35396.781313035644,-38079.415330817144,-39535.51972335813,-28944.413834144336,-38603.02729642717
14202.924275746856,5405.858803493835,-28771.098407637885,-35509.59056730158,-38019.87028358821,-39645.19973340032,-28980.422494461836,-38676.36336998503
14138.66301043785,5409.770358773513,-28771.63484950481,-35482.38849429947,-38255.94940852516,-39621.350422066505,-29104.25115874424,-38727.77238223224
14038.862471444902,5491.667150457758,-28663.29594412994,-35362.672550996846,-38338.092069398415,-39502.43914156427,-29074.165710707395,-38651.75409933974
14085.59996910095,5491.689502202214,-28651.18129863516,-35373.781367991134,-38112.697078311096,-39499.6228217629,-28947.118395223428,-38584.609458996
14188.306234873085,5406.21643140512,-28762.492986022593,-35495.19604387236,-38009.94610905005,-39619.6516894879,-28966.899689066377,-38652.670520862404
14157.729048458224,5399.577963301893,-28779.525015297535,-35493.65377350495,-38217.52675980649,-39629.70997449279,-29091.108333004515,-38722.47501879633
14044.83038721447,5471.952911848177,-28678.875110015288,-35376.39652209241,-38354.16297366178,-39526.131990686896,-29096.651565629432,-38672.0271315607
14063.225872901186,5489.364920778861,-28646.7109497441,-35365.46651905376,-38165.80482313691,-39504.517853798614,-28974.275764736627,-38601.77559873767
14186.205170894287,5423.673143824714,-28736.20733454315,-35475.5265087517,-37998.21144321102,-39595.37769500944,-28946.35843591195,-38641.427593401386
14193.04480469761,5410.038579706977,-28773.624154761335,-35488.378761813496,-38158.58520967784,-39621.57393951106,-29057.647771554923,-38709.75687620126
14073.351213139442,5477.965531106655,-28685.424171140694,-35385.22546115225,-38343.54589504551,-39524.2767958971,-29095.869254573496,-38672.31770423862
14059.49313157715,5510.800243711501,-28627.488449512537,-35335.693995439295,-38197.52194851899,-39472.75602492762,-28979.662535150357,-38592.09729338852
14179.365537090962,5447.768324347535,-28710.7263458641,-35433.48287743126,-37995.30571643182,-39567.862697584955,-28925.660720546333,-38618.7182210348
14200.62204606796,5397.856878978834,-28784.241233377605,-35500.605166030546,-38119.82728479234,-39637.10840190749,-29041.599219036012,-38713.86959718104
14075.295814907053,5439.02879226551,-28727.713671650134,-35422.86579881499,-38353.939456217224,-39569.673188885834,-29124.792411898663,-38715.16599835944
14044.293945347543,5503.044188385509,-28636.63031299476,-35327.80382964657,-38253.96010326864,-39480.37796978688,-29013.100744855496,-38607.654107529415
14153.817493178547,5450.271719726529,-28692.06263924392,-35415.02033651118,-38010.72842010599,-39549.37780492041,-28917.77055475361,-38592.61138351099
14210.926200261856,5389.832602719379,-28775.680515251224,-35498.74997124076,-38071.12283362423,-39636.39314608493,-29005.702317440788,-38680.2302217758
14114.120795025921,5436.860673053346,-28717.364813967328,-35417.38962142344,-38302.82101664794,-39579.4409012128,-29093.14234174995,-38686.734579412296
14042.818730213492,5496.405720282283,-28630.550638502915,-35328.29556802459,-38272.7355686111,-39463.32358876748,-29017.68285246883,-38601.82030222658
14128.22474577722,5448.50593191456,-28681.087932716364,-35404.71618231728,-38040.88092337619,-39529.752973288654,-28927.04652870256,-38594.243060856235
14211.19442119532,5383.283541593974,-28778.20626237467,-35506.21545388883,-38043.987815855486,-39637.488381563235,-28995.4428667358,-38683.35946599954
14138.595955204482,5421.616783334825,-28749.350160282873,-35443.92114209189,-38285.83369086191,-39599.75863692268,-29109.10148729104,-38718.42935304992
14049.121922149889,5494.908153403778,-28646.934467188654,-35336.92334138433,-38316.3438220434,-39496.33711532797,-29057.871288999475,-38641.33818642356
14119.865193350935,5474.0316240825205,-28662.848909240834,-35377.17883314834,-38079.88471745071,-39527.74131628768,-28941.373996898415,-38602.7143720048
14224.426653912862,5404.048312192955,-28761.17423309973,-35494.2796223497,-38015.936376564074,-39639.74590775322,-28974.611040903455,-38676.18455602939
14165.127475872932,5408.541012828471,-28761.464805777647,-35474.76654944021,-38242.67247231871,-39624.25614884569,-29091.868292315998,-38720.061030395154
14063.628204301383,5491.376577779839,-28649.214345123095,-35347.11573685596,-38326.46916228165,-39494.660734493824,-29060.307629145103,-38636.8678375325
14109.114004267933,5494.684635959225,-28635.33391181635,-35347.585123489516,-38105.72333404104,-39494.25840309363,-28932.25448516065,-38573.07595885706
14210.657979328393,5401.321399369407,-28754.78163418551,-35482.38849429947,-38000.73719033446,-39619.56228251008,-28954.047436004574,-38645.897942292446
14185.132287160432,5394.839393477368,-28780.374381586837,-35491.01626765922,-38206.19442536765,-39634.11326815048,-29082.36880092249,-38715.99301290429
14086.203466201243,5486.414490510761,-28676.48347335857,-35366.47234755425,-38347.27863636955,-39521.95221447375,-29088.582585881068,-38664.31577972362
14103.570771643017,5505.592287253415,-28642.844097953333,-35342.57833273153,-38161.17801203466,-39493.38668505987,-28963.435168675802,-38589.01275265369
14213.787223552135,5433.619670107326,-28731.15584029625,-35451.23016252877,-37984.59923083773,-39586.36994199395,-28926.24186590217,-38616.57245356708
14208.62397058296,5392.090128909365,-28776.060494906964,-35484.601317000546,-38146.13528801624,-39630.24641635972,-29043.56617254808,-38691.13787306999
14092.953693026746,5464.12980128882,-28689.179264209186,-35375.14482440291,-38340.26018861058,-39533.68688031279,-29090.66129811541,-38666.88623033598
14072.635957316872,5500.339627306417,-28633.746937960022,-35327.75912615766,-38207.80375096843,-39479.10392035293,-28983.372924729938,-38589.482139287255
14196.665787299371,5447.7906760919905,-28705.25016847255,-35417.94841503482,-37995.8198065543,-39564.93461906131,-28923.470249589715,-38606.02243018418
14226.840642314035,5399.153280157242,-28781.760189743065,-35488.4234653024,-38116.6980405686,-39645.870285733974,-29040.101652157504,-38701.64319296398
14123.419120719329,5465.537961189504,-28706.993604540065,-35392.69094380033,-38338.02501416505,-39568.60030515198,-29108.7215076353,-38693.97654461581
14082.604835343938,5521.752598494601,-28620.71587094258,-35310.99531781618,-38246.4275653872,-39474.1641848283,-29002.93070112833,-38599.11574114749
14190.273188385152,5472.019967081544,-28681.289098416462,-35392.37801937795,-38014.34940270775,-39548.37197641993,-28921.995034455664,-38597.864043457994
14248.521834435682,5409.748007029058,-28769.77965471502,-35490.23395660328,-38068.95471441206,-39635.96846294028,-29011.93845414382,-38687.494538723775
14147.491949497695,5448.036545280998,-28720.896389591264,-35414.64035685544,-38307.738400428105,-39577.1386715339,-29106.374574467492,-38702.7831319312
14078.11213470842,5511.448444300705,-28626.929655901156,-35313.76693412864,-38284.604344916865,-39487.955211157234,-29030.199829363806,-38616.84067450055
14161.506493271172,5464.688594900203,-28671.90136574523,-35388.77938852065,-38049.86632464723,-39543.678110084315,-28932.880334005396,-38601.48502605975
14248.432427457861,5393.7888614879685,-28769.869061692843,-35495.73248573929,-38040.277426275905,-39636.63901527393,-28992.425381234334,-38678.486785708286
14172.414144565362,5421.16974844572,-28742.01878810153,-35440.63543565696,-38276.915344824236,-39595.757674665176,-29095.690440617855,-38706.94055639989
14083.230684188688,5498.75265345009,-28635.80329844991,-35321.12065805443,-38312.3428597859,-39486.74821695664,-29045.734291760244,-38624.46261935981
14150.688248954804,5487.666188200258,-28647.515612544492,-35351.831954936024,-38077.336618582805,-39506.64126952187,-28927.940598480774,-38576.138147847436
14254.020363571688,5413.681914053192,-28755.094558607885,-35472.240802316766,-38012.24833872895,-39623.27267208966,-28965.893860565888,-38654.23514297428
