Fp1,Fp2,C3,C4,P7,P8,O1,O2
16077.699193680191,5459.570045419937,-22264.438541464635,-30363.704903567424,-33313.95635771231,-33888.507948935985,-20565.3036314611,-28409.04485095082
16095.155906099786,5415.335943142884,-22316.5181060455,-30412.141133802073,-33283.06624687508,-33935.17839135866,-20559.670991858362,-28413.984586475442
16105.99650216061,5466.32027224544,-22299.21785583709,-30366.208298946418,-33431.86180971406,-33869.26309695996,-20622.457042033322,-28326.61161739965
16092.116068853864,5514.37652282435,-22248.948782557105,-30309.32310930766,-33482.22028997187,-33820.71510800304,-20640.807824231128,-28320.151963252065
16083.063612349466,5479.440746240705,-22250.960439558083,-30338.51448756629,-33337.80566904612,-33873.197003984096,-20576.099524033016,-28401.48996132493
16095.222961333153,5421.795597290468,-22298.055565125414,-30401.859331352633,-33273.4549967593,-33927.04235637693,-20558.374590679956,-28426.568618603782
16101.392042802818,5443.3873824342945,-22316.56280953441,-30391.644584136557,-33421.75882122026,-33891.771303626454,-20632.60473401603,-28355.445367746994
16093.412470032272,5506.4863570316265,-22256.503672183,-30321.325996080162,-33504.99671757183,-33831.44394534158,-20665.19357743187,-28321.64953013057
16085.969339128655,5487.956760878177,-22230.3968346592,-30327.785650227746,-33363.24195423626,-33856.1426229647,-20591.522227707177,-28386.71545823997
16092.160772342775,5424.544861858471,-22279.593024205333,-30396.338450472173,-33260.33452276403,-33920.04626036242,-20543.913012017372,-28428.043833737833
16105.393005060318,5440.660469610747,-22304.17994310617,-30392.292784725763,-33374.01549506372,-33903.9530043546,-20595.679652175862,-28363.871975406644
16104.409528304283,5507.08985413192,-22253.508538425987,-30323.583522270146,-33483.49433940582,-33831.242779641485,-20632.135347382467,-28297.330832163196
16086.103449595386,5495.824574926445,-22229.994503259004,-30324.76816472628,-33390.19815804937,-33847.89482926069,-20586.64954741592,-28364.073141106743
16084.874103650345,5430.043390994477,-22278.341326515834,-30394.930290571487,-33266.525955978155,-33918.481638250545,-20540.895526515906,-28430.368415161185
16102.353167814395,5430.758646817047,-22308.22560885258,-30406.329680243696,-33349.2721139517,-33907.90926312319,-20578.044125800625,-28379.47349303645
16107.516420783571,5503.602981996892,-22258.515329183978,-30333.798269486222,-33482.44380741642,-33838.50709658946,-20632.64943750494,-28317.35799519515
16090.551446741993,5511.023761156054,-22228.45223289159,-30311.62533898656,-33418.96485316334,-33836.60719831076,-20597.713660921298,-28362.597925972692
16093.054842120988,5445.823722579923,-22269.959422345095,-30380.468711908903,-33272.53857523663,-33905.4505712331,-20533.184174678823,-28437.38686292015
16118.580534288949,5435.251347452563,-22299.731945959564,-30407.849598866655,-33317.04089844714,-33914.19010331513,-20554.127759233448,-28400.953519458
16118.893458711322,5494.684635959225,-22272.619279935276,-30353.378397629072,-33475.134786979535,-33846.620779826735,-20617.22673383078,-28324.577608654217
16097.972225901154,5518.846871715412,-22238.845794063305,-30323.583522270146,-33438.79085049521,-33819.016375424435,-20589.242349772736,-28350.997370600388
16091.914903153767,5460.799391364979,-22254.15673901519,-30380.669877609,-33285.793159698624,-33885.40105645669,-20522.85766874047,-28436.15751697511
16113.126708641854,5432.367972417828,-22302.70472797212,-30421.10418332865,-33295.62792725896,-33908.8033329014,-20533.810023523572,-28419.058432466798
16110.533906285038,5475.596246194393,-22288.3102045429,-30383.754418343833,-33458.92977224944,-33849.95118975058,-20603.055727846113,-28336.826364615725
16086.639891462315,5511.403740811795,-22242.422073176156,-30337.419252087984,-33471.53615612223,-33814.21075036654,-20594.159733552904,-28341.944914095988
16086.7963536735,5469.963606591655,-22248.59115464582,-30373.517319383303,-33316.61621530249,-33865.910335291665,-20522.96942746275,-28424.04287148033
16101.9508364142,5422.8461292798675,-22303.151762861224,-30431.609503222648,-33281.479273018755,-33908.53511196794,-20515.01220643666,-28428.177944204563
16109.99746441811,5467.840190868401,-22305.18577160666,-30400.697040640956,-33430.81127772466,-33856.23202994252,-20578.26764324518,-28346.057635075766
16096.675824722746,5517.215194370174,-22251.183957002635,-30346.09172893664,-33487.51765340778,-33805.8288461958,-20595.389079497945,-28332.870105847134
16081.968376871155,5476.758536906068,-22258.828253606353,-30381.87687180959,-33353.54129714266,-33857.12609972073,-20540.806119538083,-28423.729947057956
16095.960568900176,5424.388399647284,-22313.83589671086,-30447.345131319184,-33282.57450849706,-33921.16384758519,-20521.047177439592,-28455.447072440038
16112.836135963935,5452.998632550077,-22311.913646687706,-30433.196477078975,-33415.343870561584,-33883.47880643354,-20583.45324795881,-28381.261632592876
16100.609731746881,5507.782758210034,-22264.97498333156,-30371.751531571335,-33506.74015363934,-33819.06107891334,-20617.60671348652,-28345.811765886756
16085.097621094897,5481.340644519406,-22253.821462848362,-30386.83895907867,-33376.340076487075,-33847.112518204754,-20556.273526701156,-28415.929188243055
16089.500914752594,5415.335943142884,-22305.766916962497,-30456.50934654586,-33273.94673513732,-33916.51468473848,-20522.47768908473,-28463.314886488308
16100.319159068962,5425.058951980943,-22324.967065449604,-30454.609448267158,-33389.974640604814,-33893.6488501607,-20580.748686879717,-28394.695031010513
16087.645719962804,5484.1793160652305,-22284.622166707777,-30392.985688803878,-33510.67406066347,-33833.88028548721,-20628.000274658236,-28344.13538505261
16064.377553984828,5474.9703973496435,-22270.74173340103,-30389.34235445766,-33422.965815420845,-33850.17470719513,-20590.225826528767,-28412.844647508224
16071.284243021519,5410.016227962521,-22293.987547634548,-30449.245029597885,-33284.85438643151,-33908.93744336813,-20531.038407211116,-28467.114683045707
16088.875065907845,5405.747044771558,-22328.543344562455,-30461.672599515034,-33356.11174775502,-33899.90733860819,-20557.324058690556,-28402.831065992246
16080.828437903934,5461.849923354379,-22301.430678538167,-30404.988575576375,-33497.978269812855,-33837.30010238887,-20614.432765773865,-28330.61257965715
16068.490274964604,5470.880028114322,-22251.40747444719,-30382.92740379899,-33434.38755683751,-33834.97552096552,-20586.69425090483,-28375.785455201323
16059.817798115946,5401.902544725245,-22291.41709702219,-30453.558916277758,-33289.168273111376,-33914.27951029295,-20530.904296744382,-28451.0661305268
16069.741972654103,5379.6402072477595,-22339.89803074575,-30482.057390458274,-33340.957265014324,-33926.260045320996,-20566.175349494857,-28427.57444710427
16072.267719777552,5439.74404808808,-22322.106042159325,-30428.189686320984,-33499.09585703562,-33856.343788664795,-20639.287905608166,-28355.914754380556
16062.701173150681,5477.697310173191,-22261.97984957455,-30379.529938641783,-33459.82384202765,-33828.00177669546,-20605.000329613726,-28364.52017599585
16056.397981214284,5421.0803414678985,-22280.062410838895,-30428.077927598708,-33298.69011624934,-33892.553614682394,-20532.290104900614,-28440.73962458845
16077.810952402468,5392.291294609463,-22321.65900727022,-30464.779491994323,-33303.89807270742,-33910.43501024664,-20534.279410157134,-28415.526856842862
16073.877045378335,5436.346582930873,-22317.345120590344,-30425.798049664267,-33458.90742050498,-33854.57800085282,-20596.663128931898,-28331.529001179817
16043.612783385848,5462.721641388135,-22283.88455914075,-30381.943927042954,-33482.130882994046,-33828.851142984764,-20604.195666813335,-28342.90603910757
16037.711922849647,5427.115312470832,-22293.47345751208,-30414.15279080305,-33338.230352190774,-33876.90739356368,-20550.663238842873,-28430.144897716633
16059.013135315554,5385.831640461879,-22329.638580040762,-30464.332457105218,-33297.68428774885,-33918.213417317085,-20544.471805628757,-28433.743528573934
16067.350335997384,5420.387437389784,-22329.258600385023,-30433.419994523527,-33438.25440862828,-33874.42634992914,-20604.08390809106,-28348.85160313268
16051.212376500653,5474.612769438359,-22278.78836140494,-30374.590203117157,-33493.016182543775,-33823.062041170844,-20623.485222278265,-28337.116937293642
16044.596260141881,5440.548710888471,-22276.955518359606,-30401.144075530065,-33354.1224424985,-33861.864669545255,-20559.78275058064,-28415.57156033177
16064.154036540276,5385.608123017326,-22318.775632235483,-30462.521965804335,-33278.48413926174,-33912.67018469217,-20533.810023523572,-28439.44322341004
16082.661280949269,5419.9627542451335,-22324.07299567139,-30434.135250346095,-33397.887158141995,-33873.30876270637,-20587.2083410273,-28360.250992804886
16070.859559876868,5477.116164817353,-22297.31795755839,-30376.177176973484,-33497.46417969038,-33821.56447429234,-20628.55906826962,-28329.31617847874
16065.003402829578,5464.599187922381,-22256.570727416365,-30374.769017072802,-33371.1768235179,-33844.452660614574,-20566.82355008406,-28396.036135677834
16068.93730985371,5399.980294702089,-22308.89616118624,-30448.820346453234,-33269.20816531279,-33914.03364110394,-20527.26096239817,-28446.752243846924
16073.22884478913,5402.841317992368,-22344.301324403445,-30459.996218680888,-33390.08639932709,-33907.23871078953,-20595.12085856448,-28395.164417644075
16077.252158791085,5480.111298574365,-22281.917605628685,-30383.30738345473,-33500.32520298066,-33824.380794093704,-20627.195611857846,-28325.002291798868
16068.065591819954,5479.239580540608,-22251.653343636197,-30371.975049015888,-33397.171902319424,-33830.326358118815,-20568.142303006924,-28370.979830143435
16073.56412095596,5410.619725062815,-22287.12556208677,-30427.608540965146,-33267.12945307844,-33894.162940283175,-20513.313473858056,-28434.235266951953
16080.917844881755,5398.147451656753,-22331.76199576402,-30451.882535443612,-33354.323608198596,-33900.577890941844,-20567.82937858455,-28392.772780987358
16083.689461194213,5465.850885611879,-22294.65809996821,-30386.749552100846,-33496.43599944544,-33832.919160475634,-20626.346245568544,-28320.50959116335
16068.13264705332,5481.430051497227,-22255.944878571616,-30360.754473299323,-33438.701443517384,-33829.81226799635,-20599.233579544256,-28362.888498650613
16057.9402515817,5415.894736754267,-22290.36656503279,-30426.468601997927,-33289.88352893395,-33899.57206244136,-20538.526241603642,-28436.604551864213
16073.608824444871,5392.537163798472,-22337.349931877845,-30460.55501229227,-33323.72407003928,-33914.86065564879,-20553.568965622064,-28401.42290609156
16068.154998797776,5442.515664400538,-22329.169193407204,-30417.237331537883,-33484.500167906306,-33861.75291082298,-20623.2170013448,-28330.098489534677
16057.113237036854,5476.490315972605,-22255.564898915876,-30369.024618747786,-33457.56631583766,-33835.713128532545,-20600.239408044745,-28346.281152520318
16056.80031261448,5427.942327015678,-22273.60275669131,-30416.745593159867,-33304.92625295237,-33895.5487484394,-20539.576773593042,-28430.77074656138
16069.049068575987,5392.358349842829,-22333.32661787589,-30464.466567571948,-33307.96609019829,-33929.746917456025,-20548.4504161418,-28421.226551678963
16067.529149953027,5440.1016759993645,-22332.343141119854,-30425.663939197537,-33469.90447877699,-33879.679009876134,-20620.31127456561,-28341.944914095988
16059.259004504564,5483.464060242661,-22261.488111196533,-30367.661162336015,-33477.52642363625,-33837.34480587779,-20612.778736684173,-28332.065443046744
16051.413542200751,5435.966603275133,-22272.21694853508,-30405.50266569885,-33330.38488988696,-33888.351486724794,-20558.374590679956,-28425.562790103293
16065.718658652147,5391.151355642242,-22326.486984072566,-30460.487957058904,-33300.61236627249,-33924.18133308665,-20563.046105271114,-28441.09725249973
16073.675879678236,5430.110446227843,-22327.090481172858,-30428.636721210092,-33443.440013341904,-33875.9462685521,-20624.2675333342,-28349.65626593307
16054.207510257664,5475.2609700275625,-22290.388916777243,-30373.182043216475,-33499.92287158047,-33832.986215708996,-20625.787451957163,-28321.403660941563
16047.010248543054,5442.046277766976,-22283.325765529367,-30395.06440103822,-33360.045654779155,-33874.0463702734,-20560.408599425387,-28402.89812122561
16067.506798208571,5393.431233576684,-22318.75328049103,-30446.40635805206,-33276.31602004958,-33915.71002193809,-20529.83141301053,-28427.216819192985
16076.51455122406,5414.888908253778,-22317.07689965688,-30434.045843368276,-33403.20687332236,-33883.14353026671,-20588.88472186145,-28351.33264676722
16062.879987106322,5472.355243248373,-22273.49099796903,-30373.562022872215,-33501.77806637026,-33830.79574475238,-20629.14021362546,-28320.64370163008
16039.678876361713,5447.36599294734,-22272.418114235177,-30384.49202591086,-33392.27687028371,-33861.97642826753,-20581.486294446742,-28392.750429242904
16051.592356156392,5388.200925374142,-22316.249885112036,-30442.897134172577,-33284.67557247586,-33918.079306850355,-20533.944133990306,-28430.211952949998
16068.08794356441,5402.7072075256365,-22324.94471370515,-30443.947666161977,-33372.920259585415,-33896.62163217326,-20573.663183887387,-28362.866146906155
16062.812931872957,5466.968472834644,-22290.075992354872,-30379.86521480861,-33508.50594145131,-33828.67232902913,-20630.481318292776,-28310.36189918064
16055.615670158348,5470.65651066977,-22260.862262351784,-30361.29091516625,-33418.83074269661,-33834.103802931764,-20585.64371891543,-28363.335533539717
16061.270661505541,5404.987085460078,-22302.771783205484,-30427.899113643067,-33281.56867999658,-33902.45543747609,-20527.797404265097,-28428.33440641575
16076.671013435247,5395.420538833206,-22328.453937584633,-30448.6862359865,-33350.65792210793,-33903.84124563232,-20568.052896029105,-28380.434618048028
16080.247292548096,5460.441763453694,-22289.60660572131,-30387.554214901236,-33490.33397320914,-33843.71505304755,-20624.334588567566,-28304.684556088992
16059.482521949116,5469.628330424825,-22256.45896869409,-30363.63784833406,-33438.85790572857,-33827.71120401755,-20592.729221907764,-28344.671826919537
16052.285260234506,5400.941419713667,-22294.50163775702,-30424.434593252492,-33289.57060451157,-33890.586661170324,-20531.843070011506,-28424.333444158252
16075.262853534563,5381.607160759826,-22334.13128067628,-30462.231393126418,-33323.54525608364,-33912.64783294771,-20557.01113426818,-28396.036135677834
16075.32990876793,5439.475827154616,-22305.476344284576,-30413.482238469394,-33476.453539902395,-33856.16497470915,-20625.385120556966,-28320.12961150761
16050.139492766797,5460.106487286865,-22275.770875903472,-30373.338505427662,-33473.12312997856,-33836.003701210466,-20620.959475154814,-28344.18008854152
16060.80127487198,5418.219318177619,-22291.08182085536,-30410.174180290007,-33315.34216586854,-33885.89279483471,-20552.83135805504,-28423.640540080138
16083.689461194213,5387.060986406921,-22300.961291904605,-30450.876706943123,-33294.286822591646,-33915.419449260175,-20541.230802682734,-28407.39082186113
16079.979071614633,5434.334925929896,-22307.08566988536,-30413.996328591864,-33449.4973360893,-33862.356407923275,-20614.11984135149,-28328.913847078544
16062.097676050387,5473.294016515496,-22263.902099597704,-30366.29770592424,-33480.87918530455,-33826.146581905676,-20617.69612046434,-28330.165544768042
16058.722562637635,5433.1726352182195,-22265.10909379829,-30396.91959582801,-33327.5685700856,-33875.70039936309,-20549.657410342385,-28410.788287018335
16072.155961055276,5385.853992206335,-22321.435489825668,-30457.51517504635,-33287.3577818105,-33927.19881858812,-20548.673933586353,-28431.68716808405
16080.716679181658,5418.59929783336,-22315.89225720075,-30431.02835786681,-33427.70438524537,-33880.37191395425,-20605.335605780558,-28345.52119320884
16058.297879492984,5462.27460649903,-22275.949689859117,-30375.886604295567,-33494.04436278872,-33837.50126808897,-20627.396777557944,-28330.07613779022
16038.427178672217,5425.573042103415,-22284.063373096393,-30405.614424421125,-33371.243878751266,-33881.8471290883,-20575.74189612173,-28409.223664906465
16055.28039399152,5374.186381600664,-22321.61430378131,-30462.052579170773,-33279.19939508431,-33930.88685642325,-20544.091825973013,-28430.658987839102
16069.9431383542,5401.991951703067,-22334.399501609743,-30445.333474318206,-33409.17478909192,-33890.02786755894,-20609.247161060233,-28362.37440852814
16063.215263273152,5465.5156094450485,-22277.581367204355,-30377.048895007243,-33500.79458961423,-33821.810343481346,-20641.858356220528,-28310.764230580837
16037.846033316378,5441.59924287787,-22279.4589137386,-30391.73399111438,-33386.80069289216,-33855.002683997474,-20584.97316658177,-28376.7465802129
16047.278469476518,5382.233009604574,-22319.84851596934,-30451.882535443612,-33280.51814800718,-33917.028774860955,-20536.82750902504,-28426.14393545913
16068.17735054223,5396.4263673336945,-22323.93888520466,-30448.440366797495,-33366.55001241565,-33894.9005478502,-20574.49019843223,-28355.08773983571
16060.041315560498,5452.350431960873,-22287.08085859786,-30388.358877701627,-33488.970516797366,-33832.76269826444,-20622.54644901114,-28296.704983318446
16040.774111840024,5445.756667346557,-22266.226681021057,-30378.859386308122,-33409.957100147854,-33845.32437864833,-20593.086849819047,-28356.85352764768
16048.17253925473,5385.988102673066,-22306.303358829424,-30438.382081792606,-33276.31602004958,-33907.23871078953,-20545.07530272905,-28424.355795902706
16060.644812660792,5368.285521064463,-22347.743493049562,-30462.969000693443,-33344.60059936054,-33913.16192307018,-20581.754515380206,-28378.46766453596
16053.55930966846,5426.690629326181,-22327.716330017607,-30409.25775876734,-33496.19013025643,-33856.00851249797,-20644.00412368824,-28311.70300384796
16054.051048046476,5457.848961096878,-22255.855471593797,-30371.68447633797,-33428.86667595705,-33839.22235241203,-20599.680614433364,-28335.440556459496
16044.8868328198,5384.378777072284,-22296.80386743592,-30437.085680614196,-33284.38499979794,-33914.65948994869,-20548.182195208337,-28420.511295856395
16054.386324213307,5350.649994689226,-22356.75124606505,-30482.012686969363,-33330.273131164686,-33932.742051213034,-20582.536826436142,-28403.85924623719
16054.073399790932,5407.065797694421,-22338.13224293378,-30426.960340375943,-33484.12018825056,-33871.76649233896,-20644.071178921604,-28322.163620253043
16042.517547907539,5449.109429014853,-22270.987602590038,-30369.96339201491,-33459.86854551656,-33836.56249482185,-20621.875896677484,-28332.89245759159
16050.698286378181,5407.959867472633,-22273.64746018022,-30407.916654100023,-33301.52878779516,-33879.79076859841,-20554.060704000083,-28410.832990507246
16066.858597619368,5366.8997129082345,-22327.872792228794,-30458.297486102285,-33291.06817139008,-33916.20176031611,-20555.379456922943,-28403.412211348084
16066.120990052343,5414.1513006867535,-22326.062300927915,-30425.06044209724,-33444.82582149814,-33877.01915228595,-20622.479393777776,-28324.17527725402
16049.156016010764,5453.22214999463,-22282.476399240066,-30378.926441541487,-33483.092008005624,-33837.23304715551,-20637.41035907392,-28324.37644295412
16035.007361770555,5404.696512782159,-22288.064335353894,-30421.39475600657,-33340.59963710304,-33891.748951882,-20579.117009534482,-28412.464667852484
16049.535995666505,5353.309852279407,-22338.28870514497,-30479.68810554601,-33283.02154338617,-33937.23475184855,-20555.290049945124,-28422.14297320163
16052.441722445694,5382.411823560217,-22346.156519193235,-30453.424805811028,-33426.38563232251,-33895.347582739305,-20616.64558847494,-28338.234524516407
16035.40969317075,5435.005478263554,-22305.766916962497,-30392.002212047842,-33497.17360701247,-33845.6373030707,-20644.115882410515,-28314.49697190487
16040.103559506364,5415.872385009812,-22279.995355605526,-30397.232520250385,-33356.26820996621,-33874.22518422904,-20581.776867124663,-28386.313126839774
16048.530167166016,5356.752020925524,-22326.55403930593,-30461.426730326028,-33266.59301121152,-33932.42912679066,-20549.813872553572,-28419.997205733922
16052.776998612524,5373.225256589086,-22345.70948430413,-30456.196422123485,-33388.94646035987,-33899.52735895245,-20607.79429767064,-28346.57172519824
16042.830472329912,5436.793617819979,-22315.266408356,-30403.87098835361,-33500.61577565858,-33847.85012577178,-20657.303411639146,-28309.17725672451
16036.214355971142,5431.987992762089,-22282.051716095415,-30389.409409691027,-33389.86288188254,-33871.162995238665,-20604.665053446897,-28376.43365579053
16050.005382300065,5370.721861210091,-22324.14005090476,-30452.038997654796,-33275.8019299271,-33937.078289637364,-20560.408599425387,-28437.87860129817
16067.685612164214,5376.332149068374,-22344.23426917008,-30455.592925023193,-33368.36050371653,-33913.2066265591,-20601.625216200973,-28368.31997255325
16055.772132369535,5438.425295165217,-22304.98460590656,-30392.292784725763,-33499.67700239146,-33836.09310818829,-20649.860280735527,-28289.306555903742
16034.537975136993,5434.446684652172,-22275.525006714466,-30381.25102296484,-33418.629576996515,-33847.58190483831,-20610.70002444983,-28344.023626330334
16041.310553706951,5370.8336199323685,-22313.32180658839,-30438.73970970389,-33279.73583695124,-33915.754725427,-20563.135512248937,-28417.33734814374
16065.159865040765,5369.179590842676,-22341.864984257816,-30455.74938723438,-33332.79887828814,-33913.09486783682,-20581.68746014684,-28367.09062660821
16058.901376593278,5425.528338614505,-22308.873809441782,-30400.853502852144,-33479.38161842604,-33850.08530021731,-20629.006103158725,-28288.16661693652
16035.65556235976,5436.435989908694,-22283.88455914075,-30380.178139230986,-33445.11639417605,-33851.35934965126,-20613.3151785511,-28334.993521570388
16039.969449039632,5381.003663659533,-22305.521047773487,-30431.58715147819,-33290.33056382305,-33911.083210835845,-20553.25604119969,-28414.968063231478
16068.713792409158,5364.888055907257,-22338.89220224526,-30463.796015238288,-33314.13517166796,-33928.31640581088,-20570.17631175236,-28386.693106495513
16067.149170297287,5417.816986777424,-22315.445222311642,-30416.097392570664,-33461.05318797269,-33866.0444457584,-20632.068292149102,-28301.421201398516
16044.953888053167,5448.640042381292,-22279.63772769424,-30374.769017072802,-33467.512842120275,-33847.62660832723,-20633.141175882956,-28325.449326687973
16046.473806676127,5405.724693027102,-22286.678527197662,-30406.955529088442,-33305.105066908014,-33893.91707109417,-20560.07332325856,-28404.015708448376
16060.823626616435,5358.115477337298,-22323.737719504563,-30462.521965804335,-33285.2567178317,-33925.03069937595,-20559.559233136086,-28392.281042609342
16057.090885292399,5396.962809200622,-22330.532649818975,-30435.945741646978,-33446.748071521295,-33887.50212043549,-20632.314161338112,-28315.234579471897
16044.305687463962,5452.350431960873,-22280.73296317255,-30370.67864783748,-33482.24264171632,-33838.66355880065,-20637.879745707483,-28306.785620067792
16047.814911343447,5418.711056555636,-22277.40255324871,-30393.611537648623,-33332.82123003259,-33871.65473361668,-20570.511587919187,-28382.736847726926
16063.148208039787,5368.754907698025,-22318.239190368557,-30448.574477264225,-33276.56188923858,-33920.8062196739,-20552.004343510194,-28400.730002013446
16070.479580221127,5396.873402222801,-22328.40923409572,-30431.810668922746,-33421.98233866481,-33885.53516692342,-20624.312236823112,-28331.305483735265
16057.537920181505,5454.630309895314,-22274.56388170289,-30371.05862749322,-33499.587595413635,-33834.90846573216,-20647.625106289997,-28297.621404841117
16038.784806583502,5430.557481116949,-22274.385067747244,-30389.007078290833,-33371.75796887374,-33874.739274351516,-20585.3084427486,-28369.974001642946
16051.413542200751,5369.090183864854,-22310.997225165036,-30451.435500554504,-33265.94481062231,-33929.16577210018,-20551.06557024307,-28406.407345105094
16074.9946326011,5393.699454510147,-22313.768841477497,-30435.521058502327,-33382.59856493456,-33894.9005478502,-20600.17235281138,-28334.300617492274
16055.682725391714,5447.298937713974,-22284.197483563126,-30378.501758396837,-33495.81015060069,-33843.02214896943,-20644.60762078853,-28296.0791344737
16038.516585650039,5438.5147021430375,-22270.2052915341,-30376.758322329322,-33390.64519293847,-33861.305875933875,-20595.098506820024,-28358.775777670835
16053.671068390737,5377.382681057773,-22294.725155201573,-30434.44817476847,-33258.32286576305,-33925.701251709615,-20542.169575949858,-28406.76497301638
16067.395039486295,5380.668387492703,-22326.08465267237,-30447.6357039971,-33363.64428563646,-33918.16871382818,-20602.139306323446,-28358.641667204105
16058.36493472635,5448.9082633147555,-22297.049736624926,-30383.173272987995,-33490.44573193142,-33842.12807919122,-20651.670772036407,-28293.821608283713
16046.496158420583,5446.181350491208,-22276.508483470498,-30375.77484557329,-33428.978434679324,-33853.818041541344,-20625.09454787905,-28353.344303768197
16067.126818552832,5393.252419621042,-22295.909797657707,-30431.721261944924,-33285.033200387144,-33919.35335628431,-20562.64377387092,-28422.567656346284
16059.974260327133,5359.925968638178,-22334.690074287664,-30459.03509366931,-33335.81636378961,-33938.419394304685,-20590.896378862428,-28381.57455701525
16051.547652667483,5417.7946350329685,-22302.548265760932,-30391.35401145864,-33486.19890048491,-33860.30004743338,-20651.13433016948,-28301.197683953964
16042.428140929716,5443.275623712018,-22256.347209971813,-30353.691322051447,-33436.84624872759,-33832.986215708996,-20623.485222278265,-28328.55621916726
16040.148262995275,5383.037672404966,-22286.343251030834,-30412.25289252435,-33282.3062875636,-33902.50014096501,-20559.24630871371,-28410.09538294022
16053.738123624102,5349.8229801443795,-22340.210955168124,-30461.583192537215,-33307.96609019829,-33932.42912679066,-20580.4581142018,-28392.14693214261
16053.246385246086,5402.506041825538,-22330.107966674324,-30414.64452918107,-33473.726627078846,-33878.18144299763,-20651.17903365839,-28315.100469005167
16028.614762856338,5434.536091629993,-22294.211065079104,-30365.87302277959,-33481.52738589375,-33845.32437864833,-20649.636763290975,-28327.684501133503
16040.863518817845,5398.147451656753,-22278.095457326825,-30396.24904349435,-33310.9612239553,-33888.61970765826,-20569.751628607708,-28401.825237491757
16061.874158605833,5362.116439594798,-22314.23822811106,-30441.377215549615,-33274.416121770875,-33921.94615864112,-20555.53591913413,-28389.33061234124
16056.80031261448,5396.44871907815,-22326.12935616128,-30414.622177436613,-33438.61203653956,-33881.98123955503,-20633.565859027607,-28309.64664335807
16035.432044915206,5437.128893986809,-22287.572596975875,-30363.72725531188,-33488.50113016381,-33841.4351751131,-20651.044923191657,-28314.11699224913
16020.858707530346,5393.6100475323265,-22293.02642262297,-30393.25390973734,-33338.878552779985,-33886.92097507966,-20587.87889336096,-28399.299490368307
16037.26488796054,5342.20103528512,-22346.33533314888,-30456.08466340121,-33285.2567178317,-33937.637083248745,-20581.620404913476,-28425.205162192007
16056.50973993656,5384.736404983569,-22334.958295221128,-30429.97782587741,-33428.8890277015,-33898.9015101077,-20648.4744725793,-28342.727225151924
16043.74689385258,5444.527321401515,-22280.509445728,-30362.117929711098,-33495.58663315614,-33841.6363408132,-20658.1751296729,-28301.823532798713
16029.754701823558,5416.475882110105,-22278.564843960386,-30379.731104341878,-33359.06217802312,-33862.53522187891,-20584.146152036927,-28371.42686503254
16057.493216692594,5369.268997820496,-22317.52393454599,-30434.02349162382,-33256.57942969554,-33918.88396965074,-20550.46207314278,-28408.374298617164
16063.550539439982,5383.261189849519,-22333.036045197972,-30433.06236661224,-33378.84347186607,-33904.37768749925,-20617.182030341868,-28342.90603910757
16053.536957924005,5439.945213788177,-22294.4122307792,-30371.103330982132,-33499.36407796908,-33845.07850945932,-20662.75723728624,-28297.956681007945
16038.762454839047,5424.678972325203,-22277.335498015345,-30374.321982183694,-33396.45664649685,-33870.02305627144,-20610.70002444983,-28364.006085873378
16056.755609125568,5374.029919389477,-22313.99235892205,-30431.609503222648,-33265.184851310834,-33926.50591451,-20559.223956969257,-28414.14104868663
16066.32215575244,5374.879285678779,-22332.968989964604,-30440.863125427142,-33356.156451243936,-33909.47388523506,-20602.966320868294,-28357.680542192527
16052.821702101435,5438.134722487298,-22300.201332593126,-30380.06638050871,-33505.48845594984,-33848.34186414979,-20666.154702443448,-28294.760381550837
16036.214355971142,5447.768324347535,-22269.69120141163,-30352.52903133977,-33430.36424283555,-33847.91718100514,-20633.87878344998,-28344.76123389736
16043.568079896937,5382.881210193778,-22299.754297704018,-30410.956491345944,-33286.3072498211,-33907.439876489625,-20577.93236707835,-28421.33831040124
16066.500969708082,5373.202904844631,-22328.319827117903,-30434.850506168666,-33332.26243642121,-33916.96171962759,-20603.905094135418,-28382.669792493558
16060.42129521624,5431.093922983876,-22303.75525996152,-30384.380267188582,-33481.59444112712,-33859.56243986636,-20665.5288535987,-28310.56306488074
16039.812986828447,5450.629347637814,-22267.41132347719,-30353.08782495115,-33446.16692616545,-33842.97744548052,-20641.858356220528,-28337.854544860667
16056.934423081211,5411.647905307759,-22274.295660769425,-30389.409409691027,-33283.44622653082,-33896.42046647316,-20570.60099489701,-28405.557978815792
16061.985917328111,5376.622721746293,-22332.07492018639,-30443.210058594952,-33307.362593098,-33934.843115191834,-20591.231655029256,-28388.72711524095
16063.930519095722,5426.847091537367,-22312.3159780879,-30394.103276026643,-33462.50605136228,-33871.095940005296,-20653.973001715305,-28302.717602576926
16043.545728152481,5458.184237263708,-22263.589175175333,-30342.67191203498,-33472.676095089446,-33828.91819821813,-20647.51334756772,-28307.07619274571
16037.957792038655,5402.0590069364325,-22277.26844278198,-30388.157712001528,-33311.609424544506,-33889.71494313657,-20579.094657790025,-28391.52108329786
16059.840149860402,5368.464335020106,-22313.74648973304,-30433.710567201444,-33282.82037768607,-33930.596283745326,-20568.388172195933,-28395.700859511002
16067.79737088649,5420.320382156418,-22303.12941111677,-30388.515339912814,-33427.77144047874,-33873.75579759548,-20617.182030341868,-28305.04218400028
16049.647754388781,5467.907246101767,-22254.290849481924,-30336.458127076403,-33472.676095089446,-33826.70537551706,-20627.642646746954,-28288.45718961444
16034.828547814912,5428.657582838247,-22260.79520711842,-30366.990610002355,-33333.33532015506,-33877.35442845278,-20570.39982919691,-28375.51723426786
16054.587489913403,5383.149431127243,-22304.068184383894,-30424.121668830117,-33264.91663037737,-33925.969472643075,-20546.327000418547,-28395.790266488824
16068.579681942427,5414.352466386851,-22307.443297796643,-30404.675651154,-33399.80940816515,-33880.21545174306,-20605.335605780558,-28320.46488767444
16059.46017020466,5474.65747292727,-22255.07316053786,-30333.99943518632,-33476.00650501329,-33819.66457601364,-20628.827289203084,-28296.88379727409
16044.283335719507,5447.187178991697,-22261.085779796336,-30350.04798770523,-33350.83673606357,-33851.515811862446,-20570.332773963546,-28370.890423165612
16054.431027702216,5380.78014621498,-22307.286835585455,-30420.478334483905,-33258.56873495206,-33913.56425447038,-20536.045197969102,-28407.212007905488
16076.13457156832,5399.510908068527,-22307.622111752287,-30408.676613411502,-33372.562631674125,-33886.51864367946,-20588.907073605904,-28339.933257095014
16058.36493472635,5452.46219068315,-22278.967175360583,-30354.54068834075,-33486.511824907284,-33833.187381409094,-20629.36373107001,-28298.403715897053
16046.40675144276,5449.89174007079,-22252.41330294768,-30352.68549355096,-33394.310879029144,-33850.062948472856,-20589.443515472834,-28375.58428950123
16058.968431826645,5389.586733530371,-22290.277158054967,-30413.035203580286,-33259.01576984117,-33905.42821948865,-20529.58554382152,-28433.29649368483
16068.490274964604,5383.037672404966,-22326.46463232811,-30434.73874744639,-33349.54033488516,-33897.22512927355,-20565.147169249914,-28378.534719769326
16061.918862094744,5443.074458011921,-22283.236358551545,-30374.769017072802,-33480.7003713489,-33826.54891330587,-20611.661149461408,-28307.679689846005
16043.143396752286,5449.17648424822,-22263.991506575527,-30363.034351233764,-33424.32927183262,-33831.51100057495,-20584.861407859495,-28362.530870739327
16059.124894037832,5395.129966155287,-22285.02449810797,-30415.337433259185,-33269.0517031016,-33879.56725115386,-20520.086052428014,-28424.847534280725
16077.676841935736,5383.507059038528,-22314.28293159997,-30443.567686506238,-33321.175971171375,-33890.6984198926,-20551.132625476435,-28386.737809984425
16073.385307000317,5438.291184698485,-22289.383088276754,-30396.15963651653,-33479.91806029297,-33834.260265142955,-20618.45607977582,-28316.97801553941
16049.156016010764,5457.401926207773,-22261.577518174356,-30372.0197525048,-33447.28451338822,-33819.88809345819,-20593.936216108348,-28352.38317875662
16056.867367847844,5409.971524473611,-22274.630936936253,-30410.464752967928,-33288.38596205544,-33874.62751562924,-20526.25513389768,-28425.406327892106
16070.099600565387,5380.06489039241,-22327.80573699543,-30453.424805811028,-33306.155598897414,-33892.17363502665,-20547.936326019328,-28407.10024918321
16068.870254620346,5434.223167207619,-22315.400518822735,-30416.343261759674,-33465.121205463554,-33841.390471624196,-20615.863277419005,-28333.071271547233
16050.31830672244,5469.98595833611,-22271.904024112704,-30373.316153683205,-33476.11826373557,-33811.9308724321,-20611.974073883783,-28343.0401495743
16046.40675144276,5418.152262944253,-22273.26748052448,-30415.8291716372,-33314.13517166796,-33868.34667543729,-20547.265773685667,-28425.629845336658
16068.400867986784,5378.433213047173,-22314.84172521135,-30467.50640481787,-33285.07790387606,-33905.8529026333,-20539.73323580423,-28424.735775558445
16070.591338943404,5410.530318084993,-22315.556981033922,-30440.974884149422,-33443.81999299765,-33855.24855318649,-20612.354053539522,-28349.499803721883
16053.581661412914,5457.3572227188615,-22271.725210157063,-30384.939060799967,-33485.23777547333,-33811.193264865076,-20618.791355942652,-28331.886629091103
16043.478672919116,5424.50015836956,-22272.440465979635,-30414.935101858988,-33342.94657027085,-33863.71986433505,-20560.96739303677,-28414.8563045092
16051.078266033921,5362.496419250539,-22326.777556750483,-30477.721152033944,-33277.03127587215,-33917.63227196124,-20543.62243933945,-28441.209011222007
16070.613690687858,5404.182422659686,-22319.42383282469,-30444.685273729003,-33410.96292864835,-33872.995838284,-20606.274379047678,-28361.413283516562
16056.621498658837,5461.961682076655,-22273.625108435765,-30380.356953186627,-33501.17456926996,-33818.70345100206,-20639.757292241728,-28328.176239511522
16042.60695488536,5437.8665015538345,-22265.64553566522,-30384.447322421947,-33377.90469859895,-33850.91231476216,-20578.289994989635,-28403.56867355927
16056.018001558543,5377.673253735692,-22310.37137632029,-30454.140061633596,-33275.19843282681,-33910.14443756872,-20542.616610838963,-28445.43349092406
16063.37172548434,5389.8549544638345,-22332.3207893754,-30455.816442467745,-33392.65684993945,-33893.38062922724,-20606.430841258865,-28382.110998882177
16057.13558878131,5456.865484340845,-22285.89621614173,-30384.96141254442,-33506.85191236161,-33828.94054996259,-20645.65815277793,-28328.779736611814
16037.689571105191,5447.701269114169,-22268.88653861124,-30388.649450379547,-33412.415792037944,-33844.877343759224,-20601.17818131187,-28390.023516419355
16048.12783576582,5383.752928227535,-22310.03610015346,-30455.28000060082,-33280.004057884704,-33912.49137073653,-20553.859538299985,-28448.1157002587
16065.182216785219,5387.172745129197,-22329.169193407204,-30468.087550173706,-33361.40911119093,-33910.882045135746,-20586.090753804536,-28394.024478676856
16064.332850495917,5449.8470365818785,-22289.897178399227,-30406.10616279914,-33496.905386079,-33844.63147457021,-20637.119786396004,-28326.008120299357
16042.517547907539,5455.367917462339,-22260.728151885054,-30384.179101488484,-33441.31659761865,-33841.68104430212,-20612.577570984075,-28377.774760457847
16039.634172872804,5392.715977754114,-22299.351966303824,-30440.661959727047,-33296.074962148065,-33905.8529026333,-20562.73318084874,-28458.44220619705
16057.493216692594,5375.169858356698,-22342.960219736127,-30465.07006467224,-33342.924218526394,-33913.18427481464,-20593.913864363894,-28418.320824899773
16059.41546671575,5436.12306548632,-22306.146896618236,-30410.621215179115,-33492.9044238215,-33847.0901664603,-20648.161548156924,-28330.590227912693
16043.791597341491,5468.533094946515,-22257.777721616952,-30374.523147883792,-33462.9977897403,-33826.0348231834,-20619.84188793205,-28357.121748581143
16044.819777586436,5414.553632086949,-22279.011878849495,-30430.73778518889,-33308.055497176116,-33889.15614952519,-20555.96060227878,-28430.591932605737
16067.41739123075,5384.82581196139,-22321.010806681017,-30471.596774053192,-33303.89807270742,-33911.19496955812,-20562.263794215178,-28408.262539894884
16069.049068575987,5435.832492808401,-22313.008882166014,-30430.536619488794,-33463.020141484754,-33855.717939820046,-20634.348170083544,-28332.668940147036
16051.637059645303,5471.215304281152,-22269.087704311336,-30385.989592789367,-33488.478778419354,-33831.28748313039,-20642.551260298642,-28345.655303675572
16058.610803915359,5432.50208288456,-22264.103265297803,-30409.123648300607,-33328.32852939708,-33874.94044005161,-20575.585433910543,-28424.825182536268
16065.9421760967,5379.8190212034015,-22317.45687931262,-30465.807672239265,-33290.151749867415,-33911.28437653594,-20562.062628515083,-28424.467554624982
16077.520379724549,5424.678972325203,-22310.863114698306,-30431.363634033638,-33428.86667595705,-33863.250477701484,-20615.304483807624,-28339.933257095014
16060.398943471784,5475.126859560831,-22274.31801251388,-30377.272412451795,-33487.83057783015,-33820.335128347295,-20636.35982708452,-28327.79625985578
16059.348411482384,5452.775115105524,-22262.337477485835,-30391.845749836655,-33353.80951807612,-33859.24951544398,-20575.205454254803,-28406.63086254965
16073.362955255861,5397.1863266451755,-22300.98364364906,-30444.573515006727,-33271.286877547136,-33908.24453929002,-20542.46014862778,-28421.047737723322
16081.744859426602,5426.802388048457,-22319.669702013696,-30431.296578800273,-33409.44301002539,-33869.821890571344,-20610.096527349535,-28346.594076942692
16071.172484299243,5479.261932285062,-22270.808788634396,-30370.14220597055,-33503.096819293125,-33808.39929680816,-20645.41228358892,-28310.071326502723
16053.782827113013,5453.490370928093,-22264.25972750899,-30381.00515377583,-33378.575250932605,-33836.897770988675,-20595.50083822022,-28382.110998882177
16061.024792316532,5387.575076529393,-22316.27223685649,-30447.8368696972,-33278.03710437263,-33907.9539666121,-20560.78857908113,-28432.849458795725
16073.251196533585,5399.086224923876,-22338.46751910061,-30447.747462719377,-33386.53247195869,-33893.045353060406,-20611.4152802724,-28371.65038247709
16069.361992998362,5467.996653079588,-22292.355870289313,-30380.088732253163,-33494.424342444465,-33828.02412843992,-20649.03326619068,-28314.11699224913
16059.929556838222,5466.4543827121715,-22256.794244860917,-30371.86329029361,-33398.62476570901,-33835.78018376591,-20600.35116676702,-28367.80588243078
16066.970356341644,5405.389416860273,-22294.32282380138,-30440.416090538038,-33277.18773808333,-33903.05893457639,-20559.894509302918,-28435.799889063823
16081.700155937691,5400.941419713667,-22328.297475373445,-30452.41897731054,-33362.303180969146,-33899.415600230175,-20604.30742553561,-28381.9992401599
16069.429048231728,5454.473847684128,-22302.50356227202,-30393.902110326544,-33503.722668137874,-33839.9376082346,-20667.00406873275,-28316.35216669466
16047.010248543054,5458.9441965751885,-22267.858358366295,-30374.85842405062,-33438.74614700629,-33834.99787270997,-20631.353036326534,-28363.983734128924
16056.46503644765,5410.485614596083,-22290.36656503279,-30417.729069915902,-33288.16244461089,-33889.98316407003,-20562.755532593197,-28429.474345382972
16073.631176189325,5390.704320753136,-22334.265391143013,-30451.144927876587,-33335.235218433765,-33909.47388523506,-20591.812800385094,-28399.075972923754
16076.291033779507,5450.405830193261,-22301.162457604703,-30393.924462070998,-33477.079388747145,-33844.47501235903,-20642.819481232105,-28315.726317849916
16056.286222492006,5473.025795582032,-22259.521157684467,-30360.28508666576,-33459.130937949536,-33829.1864191516,-20628.51436478071,-28344.13538505261
16045.847957831378,5410.776187274002,-22295.283948812958,-30418.39962224956,-33309.48600882125,-33890.07257104785,-20572.63500364244,-28433.810583807302
16056.554443425472,5375.952169412633,-22351.118606462314,-30464.846547227688,-33316.10212518003,-33917.922844639164,-20586.1578090379,-28415.81742952078
16072.178312799731,5435.02783000801,-22322.262504370512,-30412.141133802073,-33469.032760743234,-33853.326303163325,-20650.016742946715,-28320.733108607903
16047.41257994325,5461.201722765175,-22276.530835214955,-30373.159691472018,-33485.81892082917,-33826.4371545836,-20645.79226324466,-28325.829306343712
16035.499100148572,5410.776187274002,-22288.243149309536,-30414.577473947702,-33336.37515740099,-33888.507948935985,-20585.330794493057,-28419.32665340026
16061.404771972273,5376.913294424212,-22335.04770219895,-30458.476300057926,-33293.504511535706,-33918.59339697283,-20575.36191646599,-28421.450069123515
16066.568024941449,5418.420483877717,-22330.197373652147,-30430.760136933346,-33435.080460915626,-33870.35833243827,-20633.02941716068,-28338.927428594525
16039.634172872804,5454.786772106501,-22289.293681298936,-30383.73206659938,-33506.40487747251,-33834.99787270997,-20659.650344806952,-28338.256876260864
16042.674010118726,5429.618707849826,-22269.64649792272,-30394.907938827033,-33356.51407915522,-33865.55270738038,-20588.236521272247,-28411.48119109645
16054.408675957762,5374.745175212047,-22317.009844423515,-30456.755215734865,-33278.03710437263,-33915.46415274908,-20565.63890762793,-28432.804755306814
16062.634117917314,5401.254344136041,-22330.309132374423,-30446.65222724107,-33412.39344029348,-33890.251385003496,-20627.016797902204,-28360.541565482807
16047.569042154437,5459.972376820133,-22286.87969289776,-30380.714581097913,-33501.84512160363,-33827.10770691725,-20653.347152870556,-28318.676748118014
16036.728446093613,5439.02879226551,-22269.154759544705,-30388.761209101824,-33382.9785445903,-33847.55955309386,-20595.970224853783,-28384.79320821681
16047.12200726533,5379.9307799256785,-22322.79894623744,-30462.87959371562,-33287.46954053277,-33919.889798151235,-20571.22684374176,-28439.510278643404
16067.238577275108,5395.331131855385,-22339.4733476011,-30457.69398900199,-33390.242861538274,-33905.89760612221,-20624.04401588965,-28378.08768488022
16061.762399883557,5462.654586154769,-22292.758201689507,-30385.453150922436,-33502.739191381836,-33833.03091919791,-20652.497786581254,-28316.665091117036
16047.278469476518,5461.849923354379,-22261.890442596727,-30373.785540316767,-33417.69080372939,-33837.09893668877,-20607.99546337074,-28370.86807142116
16053.671068390737,5399.913239468723,-22304.515219273,-30438.315026559238,-33290.9564126678,-33906.56815845587,-20567.94113730683,-28439.398519921127
16073.541769211504,5394.504117310538,-22329.437414340668,-30450.004988909364,-33359.93389605688,-33902.92482410966,-20607.682538948364,-28388.66006000758
16064.17638828473,5453.669184883736,-22297.072088369383,-30392.985688803878,-33502.739191381836,-33842.55276233587,-20665.95353674335,-28319.8837423186
16049.60305089987,5467.482562957116,-22258.582384417343,-30368.06349373621,-33439.52845806223,-33837.59067506679,-20627.664998491407,-28361.9944288724
16052.486425934605,5406.238783149574,-22288.153742331713,-30422.44528799597,-33288.34125856653,-33896.44281821761,-20561.190910481324,-28436.939828031045
16063.170559784241,5378.25439909153,-22338.89220224526,-30464.041884427297,-33331.390718387454,-33916.98407137204,-20590.404640484412,-28406.34028987173
16058.789617871002,5436.12306548632,-22315.489925800553,-30408.676613411502,-33479.806301570694,-33854.108614219265,-20650.70964702483,-28322.99063479789
16048.016077043543,5464.755650133568,-22270.160588045193,-30367.661162336015,-33473.43605440093,-33830.10284067426,-20637.99150442976,-28345.297675764286
16053.22403350163,5416.699399554658,-22279.905948627707,-30410.978843090397,-33306.982613442255,-33883.76937911146,-20569.97514605226,-28421.62888307916
16072.088905821909,5385.4516608061385,-22329.21389689611,-30458.92333494703,-33301.461732561795,-33916.179408571654,-20581.530997935653,-28411.48119109645
16084.114144338864,5443.342678945384,-22311.041928653947,-30410.241235523372,-33451.33017913463,-33855.38266365322,-20644.786434744172,-28324.532905165306
16059.37076322684,5476.937350861711,-22269.17711128916,-30356.932324997466,-33473.458406145386,-33823.84435222678,-20642.148928898445,-28324.622312143125
16052.732295123613,5431.205681706153,-22278.006050349006,-30393.097447526154,-33322.87470374998,-33869.821890571344,-20578.31234673409,-28412.665833552583
16066.74683889709,5377.15916361322,-22328.02925443998,-30454.162413378053,-33285.30142132061,-33915.59826321581,-20575.384268210444,-28422.18767669054
16064.064629562454,5401.477861580594,-22335.80766151043,-30436.437480024993,-33438.67909177293,-33880.41661744316,-20642.88653646547,-28340.715568150947
16055.615670158348,5460.8887983428,-22282.766971917987,-30371.125682726586,-33492.01035404329,-33821.76563999244,-20648.85445223504,-28309.17725672451
16044.708018864158,5433.865539296334,-22270.31705025638,-30390.7728661028,-33350.36734943001,-33868.88311730422,-20592.818628885583,-28392.01282167588
16062.03062081702,5381.651864248737,-22322.28485611497,-30455.41411106755,-33269.454034501796,-33918.056955105894,-20565.39303843892,-28422.545304601827
16074.815818645457,5403.958905215133,-22336.99230396656,-30444.21588709544,-33404.34681228957,-33882.204756999585,-20624.491050778754,-28345.588248442204
16065.182216785219,5459.570045419937,-22285.516236485986,-30376.78067407378,-33496.74892386782,-33826.25834062795,-20654.174167415404,-28304.818666555726
16056.554443425472,5439.811103321445,-22266.897233354717,-30381.832168320678,-33378.68700965488,-33853.52746886342,-20600.12764932247,-28378.400609302596
16066.568024941449,5385.2728468504965,-22315.400518822735,-30439.745538204377,-33264.02256059916,-33915.03946960443,-20556.11706448997,-28426.747432559423
16071.507760466071,5388.245628863052,-22345.173042437204,-30446.07108188523,-33362.906678069434,-33900.242614775016,-20607.704890692818,-28364.65428646258
16068.043240075498,5449.8470365818785,-22298.055565125414,-30384.15674974403,-33489.663420875484,-33831.75686976396,-20658.979792473292,-28303.522265377316
16047.010248543054,5447.477751669616,-22264.617355420276,-30372.24326994935,-33401.35167853256,-33846.41961412664,-20615.61740823,-28353.61252470166
16044.216280486142,5378.29910258044,-22313.433565310665,-30442.31598881674,-33277.992400883726,-33908.199835801104,-20579.899320590415,-28429.58610410525
16063.282318506519,5376.846239190846,-22355.14192046427,-30461.31497160375,-33353.138965742466,-33913.005460859,-20618.344321053544,-28389.71059199698
16056.286222492006,5438.9840887765995,-22319.535591546966,-30402.149904030553,-33494.89372907802,-33855.82969854232,-20670.08860946758,-28318.900265562566
16044.998591542077,5458.698327386181,-22275.323841014368,-30367.258830935818,-33437.00271093878,-33838.998834967475,-20635.89044045096,-28355.065388091254
16052.195853256686,5397.3651406008175,-22292.02059412248,-30422.937026373987,-33283.33446780854,-33897.56040544038,-20569.706925118797,-28422.746470301925
16059.549577182483,5371.526524010483,-22336.768786522007,-30463.348980349183,-33320.46071534881,-33923.175504586165,-20600.753498167218,-28400.327670613253
16061.672992905736,5434.26787069653,-22308.672643741687,-30406.01675582132,-33466.1493857085,-33853.259247929964,-20656.834025005584,-28313.26762595983
16044.953888053167,5466.946121090188,-22268.953593844606,-30359.636886076558,-33452.22424891284,-33826.146581905676,-20638.282077107677,-28329.51734417884
16041.26585021804,5407.579887816893,-22290.54537898843,-30408.318985500217,-33300.88058720596,-33892.53126293794,-20579.675803145863,-28416.756202787903
16054.051048046476,5365.066869862899,-22336.56762082191,-30456.21877386794,-33295.739685981236,-33923.108449352796,-20588.437686972346,-28407.949615472513
16058.253176004075,5406.30583838294,-22328.40923409572,-30415.8291716372,-33452.4477663574,-33869.86659406026,-20657.348115128054,-28325.829306343712
16048.999553799576,5459.637100653303,-22274.49682646952,-30354.451281362926,-33479.58278412614,-33831.13102091921,-20649.614411546518,-28315.12282074962
16046.049123531477,5426.042428736977,-22271.859320623797,-30385.900185811544,-33322.83000026107,-33884.61874540076,-20590.73991665124,-28398.42777233455
16056.84501610339,5372.39824204424,-22321.770765992496,-30449.602657509167,-33275.891336904926,-33920.515646995984,-20583.207378769803,-28413.224627163963
16061.002440572078,5406.037617449477,-22327.291646872956,-30425.149849075064,-33419.70246073037,-33877.734408108525,-20635.421053817397,-28331.216076757442
16055.816835858446,5468.466039713149,-22274.31801251388,-30356.597048830638,-33488.00939178579,-33824.62666328272,-20657.348115128054,-28311.121858492123
16050.519472422538,5441.398077177772,-22268.148931044216,-30368.666990836504,-33352.222544219796,-33860.07652998883,-20596.283149276158,-28382.066295393266
16065.159865040765,5378.008529902521,-22314.975835678084,-30438.315026559238,-33270.90689789139,-33921.02973711846,-20567.471750673267,-28411.548246329814
16077.118048324353,5399.600315046348,-22331.784347508474,-30430.491915999883,-33399.51883548723,-33895.906376350686,-20633.185879371867,-28347.264629276353
16062.56706268395,5463.861580355356,-22284.39864926322,-30361.805005288723,-33503.856778604604,-33835.48961108799,-20670.870920523517,-28307.165599723532
16056.710905636659,5458.161885519253,-22242.466776665067,-30356.44058661945,-33385.70545741385,-33857.28256193192,-20612.801088428627,-28368.118806853156
16064.42225747374,5394.861745221823,-22298.189675592148,-30421.864142640134,-33281.188700340834,-33917.43110626115,-20583.31913749208,-28421.42771737906
16073.452362233684,5396.225201633597,-22325.12352766079,-30428.010872365343,-33374.19430901937,-33897.33688799583,-20616.779698941675,-28355.914754380556
16060.555405682971,5451.322251715929,-22290.075992354872,-30368.890508281056,-33503.2085780154,-33836.54014307739,-20663.56190008663,-28302.382326410097
16042.919879307734,5449.645870881781,-22263.946803086616,-30360.620362832593,-33417.71315547385,-33852.141660707195,-20627.016797902204,-28363.514347495362
16053.089923034899,5391.754852742535,-22300.84953318233,-30420.54538971727,-33272.51622349217,-33919.04043186193,-20563.4037331824,-28422.947636002024
16071.150132554787,5380.5789805148825,-22338.020484211505,-30445.802860951768,-33347.30516043963,-33925.969472643075,-20607.436669759354,-28382.870958193656
16065.249272018586,5436.45834165315,-22307.4656495411,-30386.481331167382,-33495.117246522575,-33856.88023053172,-20670.692106567873,-28311.2336172144
16043.65748687476,5447.701269114169,-22271.27817526796,-30359.458072120917,-33450.61492331206,-33842.82098326933,-20651.290792380667,-28350.192707799997
16045.065646775443,5391.821907975902,-22297.832047680862,-30414.488066969883,-33302.62402327347,-33911.61965270277,-20591.008137584704,-28428.82614479377
16066.948004597189,5366.229160574575,-22342.110853446826,-30454.050654655774,-33330.49664860924,-33931.37859480126,-20605.76028892521,-28402.182865403043
16066.724487152636,5422.041466479477,-22322.4189665817,-30408.117819800118,-33483.0026010278,-33872.45939641707,-20669.015725733727,-28324.331739465208
16050.340658466896,5456.709022129658,-22279.771838160974,-30368.28701118076,-33476.63235385804,-33843.826811769824,-20659.4268273624,-28337.94395183849
16040.572946139926,5400.896716224756,-22300.98364364906,-30414.264549525327,-33323.32173863909,-33903.84124563232,-20593.869160874983,-28422.165324946087
16061.270661505541,5365.49155300755,-22348.592859338863,-30463.997180938386,-33308.2119593873,-33940.296940838925,-20599.457096988812,-28418.656101066605
16065.9421760967,5417.124082699309,-22329.437414340668,-30423.02643335181,-33459.30975190517,-33887.166844268664,-20669.596871089565,-28332.534829680306
16040.84116707339,5452.4845424276045,-22291.685317955653,-30376.15482522903,-33496.7042203789,-33855.96380900905,-20684.304318941155,-28338.07806230522
16045.646792131281,5419.046332722465,-22281.649384695218,-30398.327755728693,-33337.98448300177,-33897.001611829,-20613.583399484563,-28413.917531242078
16058.409638215262,5368.129058853276,-22337.819318511407,-30458.54335529129,-33289.0565143891,-33940.05107164992,-20598.898303377428,-28425.518086614382
16057.672030648237,5394.124137654798,-22346.380036637787,-30441.108994616152,-33441.13778366301,-33906.16582705567,-20673.70959206934,-28353.344303768197
16046.049123531477,5448.058897025454,-22293.428754023167,-30376.266583951307,-33508.30477575121,-33856.00851249797,-20689.892255054983,-28329.22677150092
16031.40873091325,5417.191137932675,-22290.299509799424,-30393.477427181893,-33372.74144562977,-33888.53030068044,-20625.429824045877,-28406.8543799942
16037.242536216085,5349.398296999729,-22345.821243026407,-30466.008837939364,-33293.32569758007,-33952.322179355884,-20600.395870255932,-28445.612304879705
16052.374667212329,5372.912332166712,-22357.33239142089,-30450.832003454212,-33412.415792037944,-33915.73237368255,-20649.390894101965,-28363.84962366219
16044.55155665297,5437.173597475719,-22313.210047866112,-30379.06055200822,-33501.554548925706,-33846.57607633783,-20679.18576946089,-28311.546541636773
16031.185213468698,5424.097826969365,-22281.202349806113,-30378.702924096935,-33397.12719883051,-33864.83745155781,-20632.716492738306,-28377.126559868644
16036.616687371337,5362.228198317075,-22324.609437538318,-30443.098299872676,-33280.04876137361,-33931.44565003463,-20588.4600387168,-28426.658025581604
16055.727428880624,5372.599407744337,-22347.721141305108,-30445.84756444068,-33376.54124218717,-33918.81691441738,-20629.855469448026,-28370.890423165612
16055.950946325178,5443.007402778555,-22298.54730350343,-30370.097502481643,-33496.41364770099,-33841.88221000221,-20672.65906007994,-28303.924596777513
16043.32221070793,5442.068629511432,-22267.50073045501,-30355.412406374504,-33417.82491419613,-33845.88317225971,-20630.41426305941,-28353.791338657302
16044.238632230597,5380.914256681712,-22309.834934453364,-30423.138192074086,-33282.35099105251,-33925.0083476315,-20583.341489236533,-28427.306226170807
16051.324135222929,5367.34674779734,-22353.733760563584,-30444.014721395342,-33353.58600063157,-33927.37763254376,-20624.98278915677,-28390.0011646749
16057.269699248041,5439.319364943429,-22323.737719504563,-30382.748589843344,-33496.74892386782,-33856.343788664795,-20684.460781152342,-28313.55819863775
16049.89362357779,5469.091888557898,-22267.4560269661,-30345.778804514266,-33447.1951064104,-33846.66548331565,-20657.638687805975,-28347.242277531896
16049.580699155415,5409.882117495789,-22294.50163775702,-30399.02065980681,-33301.99817442872,-33911.7537631695,-20592.706870163307,-28425.629845336658
16061.494178950094,5380.131945625776,-22344.793062781464,-30438.873820170622,-33323.83582876156,-33931.24448433453,-20609.090698849046,-28398.18190314554
16067.976184842133,5437.978260276111,-22315.691091500652,-30385.117874755608,-33470.53032762174,-33868.10080624829,-20667.786379788682,-28311.323024192217
16054.833359102413,5477.429089239728,-22259.029419306447,-30336.547534054225,-33462.260182173275,-33826.2359888835,-20656.029362205194,-28322.92357956452
16046.898489820778,5422.153225201753,-22284.242187052034,-30382.078037509687,-33306.89320646444,-33887.23389950203,-20588.4600387168,-28403.971004959465
16068.624385431336,5382.814154960412,-22330.353835863334,-30430.536619488794,-33288.944755666824,-33924.38249878675,-20590.91873060688,-28403.27810088135
16081.476638493139,5435.519568386027,-22315.266408356,-30387.934194556976,-33444.021158697746,-33864.390416668706,-20657.593984317064,-28319.012024284846
16062.209434772663,5475.864467127856,-22270.942899101126,-30337.553362554714,-33484.74603709531,-33826.8841894727,-20669.887443767482,-28313.93817829349
16045.780902598013,5428.188196204686,-22278.02840209346,-30377.071246751697,-33331.50247710973,-33885.17753901214,-20610.767079683195,-28399.724173512957
16063.774056884535,5380.690739237159,-22327.291646872956,-30436.41512828054,-33278.21591832828,-33936.47479253707,-20595.344376009034,-28421.025385978865
16070.881911621324,5411.424387863206,-22333.103100431337,-30410.68827041248,-33420.864751442045,-33893.38062922724,-20662.153740185946,-28344.76123389736
16052.106446278865,5465.940292589699,-22292.668794711684,-30350.71854003889,-33500.61577565858,-33839.982311723514,-20688.77466783222,-28315.636910872094
16047.613745643348,5447.075420269421,-22278.676602682663,-30363.660200078513,-33370.1262915285,-33866.960867281065,-20631.37538807099,-28389.844702463713
16065.271623763041,5392.425405076195,-22316.22753336758,-30426.803878164756,-33273.54440373712,-33925.09775460932,-20595.65730043141,-28423.707595313503
16076.22397854614,5415.045370464965,-22334.6230190543,-30421.819439151222,-33390.55578596065,-33898.45447521859,-20643.55708879913,-28344.828289130724
16070.524283710038,5474.590417693904,-22290.075992354872,-30352.998417973333,-33494.82667384466,-33838.19417216709,-20677.509388626742,-28292.32404140521
16053.22403350163,5456.932539574211,-22257.107169283292,-30354.20541217392,-33383.202062034856,-33854.868573530744,-20622.702911222328,-28356.384141014118
16057.537920181505,5391.419576575706,-22306.571579762887,-30424.41224150804,-33267.86706064547,-33919.956853384596,-20572.63500364244,-28417.47145861047
16072.42418198874,5399.376797601795,-22331.203202152636,-30431.698910200466,-33364.94068681487,-33906.52345496696,-20615.729166952275,-28360.60862071617
16075.195798301196,5468.533094946515,-22274.586233447342,-30361.53678435526,-33483.91902255047,-33836.271922143926,-20658.75627502874,-28286.467884357917
16052.598184656881,5464.286263500007,-22254.15673901519,-30351.34438888364,-33409.10773385855,-33851.04642522889,-20617.874934419982,-28344.671826919537
16053.581661412914,5398.370969101306,-22299.12844885927,-30415.96328210393,-33275.01961887117,-33915.77707717146,-20568.32111696257,-28425.09340346973
16069.898434865288,5387.239800362564,-22340.99326622406,-30439.969055648933,-33336.12928821198,-33916.51468473848,-20593.377422496967,-28380.65813549258
16068.60203368688,5450.092905770887,-22309.589065264354,-30378.412351419018,-33483.96372603938,-33846.50902110446,-20648.809748746127,-28304.59514911117
16052.128798023321,5471.37176649234,-22259.36469547328,-30342.738967268346,-33441.54011506321,-33828.448811584574,-20618.143155353446,-28335.239390759398
16052.17350151223,5413.279582652996,-22287.08085859786,-30399.266528995817,-33290.9564126678,-33896.21930077306,-20558.978087780248,-28419.460763866995
16064.8916441073,5386.613951517815,-22330.89027773026,-30437.7338812034,-33308.72604950977,-33909.250367790504,-20572.098561775514,-28395.700859511002
16067.730315653125,5442.672126611725,-22308.762050719506,-30391.06343878072,-33461.38846413952,-33843.15625943616,-20632.18005087138,-28311.926521292513
16046.585565398404,5471.304711258974,-22261.085779796336,-30355.01007497431,-33460.87437401705,-33820.11161090274,-20628.044978147147,-28331.774870368823
16039.455358917161,5415.537108842982,-22283.392820762732,-30407.313156999728,-33312.369383855985,-33885.51281517897,-20572.567948409076,-28423.595836591227
16064.958699340666,5379.01435840301,-22324.408271838223,-30455.347055834183,-33289.88352893395,-33911.485542236034,-20560.609765125486,-28419.214894677985
16074.569949456449,5433.083228240398,-22314.305283344424,-30415.02450883681,-33439.79667899569,-33857.05904448737,-20612.75638493972,-28332.087794791198
16050.251251489075,5473.025795582032,-22275.860282881295,-30363.86136577861,-33487.02591502976,-33812.221445110015,-20629.520193281198,-28331.75251862437
16039.433007172705,5428.255251438052,-22274.16155030269,-30397.813665606223,-33339.39264290245,-33863.58575386831,-20569.885739074438,-28422.165324946087
16062.052972561476,5384.490535794561,-22320.27319911399,-30457.157547135062,-33278.03710437263,-33910.74793466901,-20549.45624464229,-28441.320769944286
16079.219112303152,5419.9627542451335,-22314.349986833335,-30428.16733457653,-33405.486751256794,-33864.882155046726,-20596.998405098726,-28347.75636765437
16065.115161551854,5475.2609700275625,-22266.74077114353,-30371.371551915596,-33488.99286854182,-33814.70248874456,-20628.38025431398,-28323.281207475808
16054.006344557565,5451.143437760286,-22252.256840736492,-30386.503682911836,-33358.570439645104,-33846.12904144872,-20572.433837942343,-28400.975871202456
16057.247347503586,5386.233971862075,-22303.75525996152,-30455.28000060082,-33264.11196757698,-33902.544844453914,-20537.87804101444,-28433.452955896017
16067.79737088649,5396.649884778248,-22324.27416137149,-30455.972904678933,-33385.32547775811,-33874.82868132933,-20597.847771388027,-28366.50948125237
16065.070458062943,5460.46411519815,-22271.63580317924,-30387.8224358347,-33487.852929574605,-33810.969747420524,-20627.419129302398,-28317.17918123951
16051.74881836758,5453.400963950273,-22246.870070322762,-30380.401656675538,-33375.22248926431,-33824.44784932707,-20563.873119815962,-28374.109074367178
16065.048106318487,5395.934628955678,-22293.629919723266,-30445.02054989583,-33256.020636084155,-33886.36218146827,-20522.29887512909,-28430.323711672274
16077.27451053554,5397.767472001014,-22327.582219550877,-30459.996218680888,-33345.718186583304,-33879.7460651095,-20567.717619862273,-28371.493920265904
16067.506798208571,5457.312519229951,-22301.363623304802,-30400.674688896503,-33487.45059817441,-33812.80259046586,-20626.12272812399,-28310.965396280935
16058.476693448627,5471.684690914713,-22248.434692434632,-30373.807892061224,-33416.61791999554,-33809.6286427532,-20586.001346826717,-28353.545469468292
16062.008269072567,5406.9316872276895,-22285.158608574704,-30435.185782335495,-33270.146938579914,-33884.50698667848,-20533.072415956547,-28424.936941258544
16072.044202332998,5386.904524195734,-22329.70563527413,-30466.858204228665,-33326.09335495155,-33892.620669915756,-20571.763285608686,-28392.258690864885
16068.691440664703,5446.538978402493,-22307.08566988536,-30411.001194834855,-33482.82378707216,-33832.62858779771,-20636.98567592927,-28323.214152242443
16053.112274779354,5469.2707025135405,-22260.16935827367,-30375.28310719527,-33447.798603510695,-33810.45565729805,-20617.45025127533,-28350.03624558881
16065.115161551854,5422.60026009086,-22271.21112003459,-30420.947721117467,-33281.43456952984,-33869.28544870442,-20548.428064397343,-28421.897104012623
16082.61657746036,5397.16397490072,-22316.5181060455,-30454.967076178444,-33289.54825276712,-33896.28635600643,-20558.329887191045,-28397.488999067427
16071.507760466071,5440.772228333024,-22309.633768753265,-30419.405450750048,-33455.44290011441,-33841.68104430212,-20635.89044045096,-28330.299655234776
16045.69149562019,5470.3882897363055,-22269.69120141163,-30376.40069441804,-33468.541022365214,-33816.982366678996,-20640.986638186772,-28352.204364800975
16045.825606086924,5417.88404201079,-22277.89429162673,-30419.181933305495,-33310.000098943725,-33872.638210372716,-20572.03150654215,-28424.959293003
16057.85084460388,5369.023128631488,-22335.78530976597,-30480.55982357977,-33294.08565689155,-33920.47094350707,-20579.02760255666,-28425.853362781214
16060.913033594255,5405.970562216111,-22336.56762082191,-30445.132308618107,-33454.97351348084,-33874.67221911815,-20647.736865012273,-28351.824385145235
16055.861539347356,5465.806182122968,-22272.373410746266,-30374.456092650427,-33490.42338018696,-33808.42164855262,-20642.528908554188,-28323.41531794254
16049.468940433138,5431.9432892731775,-22266.74077114353,-30398.73008712889,-33336.19634344534,-33853.10278571877,-20574.89252983243,-28398.360717101186
16062.254138261575,5381.651864248737,-22319.37912933578,-30460.197384380983,-33277.433607272345,-33906.27758577795,-20561.235613970235,-28423.886409269144
16063.930519095722,5407.7587017725355,-22332.879582986785,-30448.30625633076,-33420.35066131958,-33870.64890511619,-20630.74953922624,-28353.634876446115
16057.269699248041,5467.706080401669,-22279.2577480385,-30377.7194473409,-33496.48070293435,-33809.3827735642,-20655.112940682524,-28319.749631851868
16048.351353210373,5445.466094668638,-22258.805901861895,-30382.636831121068,-33357.87753556699,-33838.32828263382,-20581.01690781318,-28383.34034482722
16052.285260234506,5384.714053239114,-22312.85241995483,-30449.379140064615,-33262.100310576,-33897.96273684058,-20548.271602186156,-28423.551133102315
16065.048106318487,5396.940457456167,-22331.605533552833,-30445.914619674044,-33384.721980657814,-33871.49827140549,-20607.727242437275,-28357.41232125906
16062.812931872957,5467.348452490384,-22276.39672474822,-30377.071246751697,-33486.19890048491,-33806.09706712927,-20643.713551010318,-28305.064535744732
16043.590431641393,5450.964623804644,-22262.560994930387,-30381.608650876125,-33390.42167549392,-33833.00856745346,-20597.60190219902,-28374.53375751183
16048.08313227691,5387.932704440678,-22308.203257108125,-30448.6862359865,-33267.64354320092,-33905.91995786667,-20553.859538299985,-28438.68326409856
16068.579681942427,5395.264076622018,-22332.879582986785,-30456.956381434964,-33349.69679709635,-33897.91803335166,-20595.769059153685,-28386.268423350863
16066.389210985806,5456.485504685104,-22287.68435569815,-30393.723296370903,-33481.974420782855,-33826.0348231834,-20644.898193466448,-28313.781716082303
16049.245422988586,5460.866446598345,-22254.02262854846,-30372.891470538554,-33419.344832819086,-33828.873494729225,-20612.443460517345,-28362.03913236131
16044.238632230597,5390.570210286404,-22302.45885878311,-30437.17508759202,-33289.88352893395,-33898.09684730731,-20568.142303006924,-28440.605514121715
16062.812931872957,5374.9463409121445,-22334.33244637638,-30455.168241878542,-33329.289654408654,-33902.94717585411,-20593.310367263603,-28393.778609487847
16064.869292362846,5432.546786373471,-22305.78926870695,-30394.505607426836,-33476.520595135764,-33834.19320990959,-20656.968135472314,-28316.17335273902
16045.311515964451,5460.039432053499,-22268.283041510946,-30359.122795954085,-33444.222324397844,-33817.31764284583,-20639.08673990807,-28346.61642868715
16042.763417096547,5402.729559270091,-22302.972948905583,-30419.07017458322,-33298.958337182805,-33890.18432977013,-20581.01690781318,-28432.000092506423
16070.434876732217,5375.214561845608,-22331.22555389709,-30458.878631458123,-33312.861122234004,-33911.88787363623,-20593.64564343043,-28412.218798663474
16069.361992998362,5426.936498515189,-22310.304321086922,-30412.58816869118,-33463.24365892931,-33855.13679446421,-20660.097379696057,-28332.445422702483
16047.390228198796,5458.36305121935,-22266.673715910165,-30368.57758385868,-33470.66443808847,-33821.22919812551,-20654.21887090431,-28340.335588495207
16039.812986828447,5409.882117495789,-22282.476399240066,-30409.749497145356,-33314.40339260142,-33876.72857960803,-20584.637890414942,-28419.013728977887
16059.46017020466,5368.218465831097,-22323.156574148725,-30455.972904678933,-33281.68043871885,-33907.97631835655,-20576.88183508895,-28414.588083575738
16064.534016196016,5408.362198872829,-22332.23138239758,-30435.208134079952,-33443.90939997547,-33876.88504181922,-20659.18095817339,-28347.354036254175
16043.45632117466,5458.228940752619,-22291.819428422383,-30380.088732253163,-33497.48653143484,-33832.06979418633,-20670.200368189857,-28340.313236750753
16037.51075714955,5423.516681613527,-22285.940919630637,-30402.842808108668,-33347.10399473953,-33865.776224824935,-20597.06546033209,-28408.754278272903
16057.470864948138,5372.577055999882,-22327.291646872956,-30460.711474503456,-33273.656162459396,-33915.486504493536,-20572.813817598086,-28425.361624403195
16061.628289416825,5392.917143454211,-22344.18956568117,-30444.484108028904,-33412.92988216042,-33886.49629193501,-20642.03717017617,-28353.858393890667
16047.725504365624,5446.65073712477,-22296.826219180373,-30379.306421197227,-33505.13082803856,-33833.88028548721,-20678.47051363832,-28327.684501133503
16042.025809529521,5429.663411338736,-22276.150855559215,-30386.59308988966,-33380.13987304448,-33859.696550333094,-20620.51244026571,-28401.37820260265
16056.532091681016,5374.029919389477,-22322.70953925962,-30445.35582606266,-33267.911764134384,-33911.97728061405,-20572.143265264425,-28435.57637161927
16062.812931872957,5379.059061891921,-22352.370304151813,-30450.094395887187,-33386.621878936516,-33895.213472272575,-20627.46383279131,-28376.165434857066
16054.65454514677,5442.873292311823,-22296.513294758,-30387.24129047886,-33505.86843560558,-33834.97552096552,-20676.794132804174,-28329.1373645231
16040.84116707339,5447.1424755027865,-22264.595003675822,-30374.25492695033,-33400.524663987715,-33844.095032703284,-20623.4181670449,-28385.597871017206
16050.988859056099,5386.0998613953425,-22307.108021629814,-30438.69500621498,-33268.15763332339,-33910.56912071337,-20574.69136413233,-28444.919400801587
16061.56123418346,5373.314663566907,-22345.530670348486,-30462.186689637507,-33359.39745418995,-33911.44083874713,-20622.010007144214,-28396.57257754476
16060.264833005052,5439.118199243331,-22301.251864582526,-30396.20434000544,-33494.51374942229,-33837.8365442558,-20666.467626865822,-28327.63979764459
16045.915013064745,5449.26589122604,-22263.16449203068,-30370.9692205154,-33421.311786331156,-33827.57709355081,-20623.46287053381,-28367.47060626395
16047.680800876715,5384.579942772382,-22303.844666939338,-30433.48704975689,-33275.19843282681,-33897.22512927355,-20569.014021040683,-28440.516107143892
16065.159865040765,5367.905541408723,-22335.51708883251,-30456.397587823583,-33327.769735785696,-33907.05989683389,-20598.764192910694,-28402.540493314325
16066.568024941449,5426.735332815091,-22304.13523961726,-30402.418124964017,-33478.46519690337,-33841.74809953548,-20662.109036697035,-28319.995501040878
16043.590431641393,5449.422353437228,-22267.098399054816,-30371.86329029361,-33461.32140890615,-33829.34288136278,-20651.469606336308,-28352.51728922335
16044.17157699723,5395.398187088751,-22288.958405132104,-30420.523037972813,-33299.13715113844,-33891.45837920408,-20582.179198524856,-28436.82806930877
16070.412524987762,5373.627587989282,-22328.36453060681,-30461.538489048304,-33296.67845924836,-33909.36212651278,-20584.660242159396,-28417.24794116592
16071.261891277063,5424.12017871382,-22315.22170486709,-30419.69602342797,-33457.90159200449,-33852.633399085214,-20650.284963880178,-28334.099451792175
16055.548614924983,5461.894626843289,-22262.82921586385,-30370.432778648472,-33479.247507959306,-33826.39245109468,-20662.623126819508,-28350.66209443356
16043.590431641393,5407.445777350161,-22275.50265497001,-30412.208189035442,-33324.23816016175,-33886.22807100154,-20597.668957432386,-28431.016615750388
16059.482521949116,5367.637320475259,-22327.80573699543,-30465.651210028078,-33286.9554504103,-33924.44955402012,-20581.01690781318,-28432.357720417705
16073.430010489228,5413.346637886362,-22324.855306727328,-30425.127497330606,-33426.743260233794,-33868.97252428204,-20637.477414307286,-28344.738882152902
16050.966507311645,5454.65266163977,-22272.97690784656,-30374.903127539532,-33487.27178421876,-33826.280692372406,-20654.352981371045,-28332.13249828011
16039.500062406072,5420.45449262315,-22272.21694853508,-30397.7242586284,-33342.857163293025,-33870.671256860645,-20594.874989375472,-28410.497714340418
16057.13558878131,5367.927893153178,-22318.485059557566,-30457.291657601796,-33272.180947325345,-33919.688632451136,-20570.98097455275,-28433.184734962553
16073.519417467049,5402.930724970189,-22314.327635088877,-30436.16925909153,-33397.9318616309,-33878.51671916446,-20628.447309547344,-28353.74663516839
16064.42225747374,5465.694423400691,-22271.188768290136,-30369.33754317016,-33490.088104020135,-33829.1864191516,-20666.914661754927,-28327.684501133503
16053.961641068656,5449.26589122604,-22254.64847739321,-30368.801101303234,-33365.4771286818,-33843.759756536456,-20600.97701561177,-28387.184844873533
16062.947042339689,5386.166916628709,-22310.840762953852,-30435.16343059104,-33261.47446173125,-33902.52249270946,-20563.269622715667,-28423.081746468753
16072.088905821909,5396.1357946557755,-22329.549173062944,-30436.482183513905,-33374.14960553045,-33888.30678323589,-20617.092623364046,-28360.13923408261
16069.13847555381,5461.157019276264,-22281.537625972942,-30369.851633292634,-33491.67507787646,-33821.56447429234,-20659.046847706657,-28304.21516945543
16055.973298069634,5457.312519229951,-22253.21796574807,-30365.090711723653,-33396.478998241306,-33831.44394534158,-20614.589227985052,-28366.46477776346
16063.997574329089,5399.063873179421,-22292.93701564515,-30421.417107751025,-33264.78251991064,-33895.43698971713,-20565.92948030585,-28425.696900570027
16076.000461101588,5391.553687042438,-22335.315923132413,-30444.104128373165,-33345.49466913875,-33903.03658283193,-20604.285073791158,-28379.942879670012
16071.08307732142,5456.261987240552,-22295.2615970685,-30380.714581097913,-33480.029819015246,-33836.31662563284,-20654.21887090431,-28313.111163748643
16052.620536401337,5467.191990279197,-22250.26753547997,-30353.378397629072,-33418.070783385134,-33818.63639576869,-20620.37832979898,-28347.84577463219
16055.347449224884,5405.277658137997,-22285.85151265282,-30416.231503037394,-33277.81358692808,-33888.5973559138,-20568.432875684844,-28419.48311561145
16066.076286563431,5377.472088035594,-22332.65606554223,-30455.68233200101,-33320.23719790426,-33912.11139108078,-20603.25689354621,-28393.756257743393
16061.583585927916,5427.919975271222,-22313.500620544033,-30407.246101766363,-33475.98415326884,-33854.55564910837,-20672.301432168657,-28321.582474897205
16055.526263180527,5467.080231556921,-22261.711628641086,-30359.167499442996,-33448.0444726997,-33824.87253247172,-20644.719379510807,-28341.877858862623
16054.766303869046,5412.1619954302305,-22280.911777128196,-30412.945796602464,-33295.69498249233,-33885.55751866788,-20580.569872924076,-28424.28874066934
16073.608824444871,5376.06392813491,-22323.71536776011,-30455.794090723288,-33287.04485738812,-33912.58077771435,-20588.571797439075,-28407.368470116675
16085.455249006183,5433.731428829602,-22307.353890818824,-30405.748534887858,-33435.393385338,-33852.47693687402,-20647.021609189702,-28319.570817896227
16064.109333051365,5471.550580447982,-22261.085779796336,-30357.111138953107,-33463.06484497367,-33820.35748009175,-20650.55318481364,-28325.672844132525
16052.08409453441,5423.449626380161,-22278.944823616126,-30396.606671405636,-33312.92817746737,-33876.616820885756,-20590.27053001768,-28409.111906184186
16062.723524895137,5367.972596642089,-22342.13320519128,-30464.17599489403,-33286.75428471021,-33923.9578156421,-20597.847771388027,-28430.0107872499
16074.592301200904,5414.531280342493,-22321.27902761448,-30430.894247400076,-33428.57610327913,-33871.36416093876,-20660.4773593518,-28350.483280477918
16063.774056884535,5468.264874013052,-22271.948727601615,-30364.8671942791,-33487.80822608569,-33824.93958770509,-20676.816484548628,-28330.61257965715
16047.010248543054,5427.450588637661,-22277.626070693266,-30392.695116125957,-33352.31195119762,-33872.07941676133,-20618.679597220373,-28414.18575217554
16060.018963816043,5374.409899045218,-22329.727987018585,-30455.145890134085,-33275.77957818265,-33923.66724296418,-20596.03728008715,-28444.271200212384
16065.718658652147,5398.415672590217,-22343.451958114143,-30441.712491716447,-33407.85603616906,-33890.78782687042,-20656.90108023895,-28367.649420219594
16052.218205001142,5453.400963950273,-22297.630881980764,-30377.29476419625,-33507.74598213982,-33834.394375609685,-20694.608473135053,-28329.383233712106
16050.184196255708,5446.181350491208,-22266.718419399076,-30369.62811584808,-33373.680218896894,-33852.18636419611,-20621.875896677484,-28387.877748951647
16053.983992813111,5380.377814814784,-22322.329559603877,-30445.31112257375,-33267.57648796755,-33922.63906271924,-20573.752590865206,-28432.827107051267
16058.74491438209,5384.490535794561,-22353.979629752594,-30457.582230279713,-33392.52273947272,-33921.72264119657,-20646.552222556144,-28387.52012104036
16051.994687556587,5449.154132503764,-22305.118716373294,-30387.218938734408,-33510.58465368565,-33845.1902681816,-20689.914606799437,-28326.90219007757
16037.957792038655,5451.41165869375,-22269.579442689355,-30366.565926857704,-33412.99693739378,-33845.27967515942,-20632.716492738306,-28365.45894926297
16043.32221070793,5389.139698641265,-22307.532704774465,-30428.524962487816,-33271.555098480596,-33914.57008297087,-20581.01690781318,-28430.077842483264
16061.918862094744,5386.524544539994,-22340.3227138904,-30443.679445228514,-33344.08650923807,-33916.13470508274,-20613.829268673573,-28373.393818544606
16054.22986200212,5446.762495847046,-22306.66098674071,-30383.55325264374,-33494.24552848882,-33839.915256490145,-20674.961289758838,-28308.529056135307
16043.389265941296,5462.118144287842,-22261.39870421871,-30354.7642057853,-33434.789888237705,-33831.868628486234,-20644.205289388334,-28346.594076942692
16053.626364901826,5402.930724970189,-22287.192617320135,-30408.78837213378,-33284.67557247586,-33898.074495562854,-20587.744782894228,-28421.62888307916
16063.327021995428,5372.510000766516,-22335.964123721616,-30450.40732030956,-33329.13319219747,-33917.69932719461,-20621.294751321646,-28394.91854845507
16061.114199294354,5423.002591491055,-22322.17309739269,-30406.284976754785,-33490.57984239815,-33863.07166374584,-20693.401478934466,-28322.208323741954
16042.070513018432,5456.999594807577,-22277.78253290445,-30361.737950055358,-33473.74897882331,-33839.37881462322,-20672.10026646856,-28345.051806575277
16046.674972376226,5411.9831814745885,-22289.13721908775,-30399.244177251363,-33318.20318915882,-33894.297050749905,-20601.46875398979,-28423.841705780236
16074.234673289619,5383.1047276383315,-22318.686225257665,-30440.661959727047,-33295.650279003414,-33918.347527783815,-20599.904131877916,-28404.99918520441
16069.026716831533,5423.561385102437,-22311.444260054144,-30409.190703533975,-33452.31365589066,-33865.95503878058,-20671.809693790638,-28322.096565019678
16051.659411389759,5469.2707025135405,-22266.047867065416,-30350.85265050562,-33471.53615612223,-33829.45464008506,-20665.819426276616,-28315.12282074962
16043.612783385848,5425.4836351255935,-22272.373410746266,-30381.85452006513,-33321.13126768247,-33874.873384818246,-20601.804030156618,-28400.215911890977
16058.923728337733,5374.9463409121445,-22323.60360903783,-30440.483145771403,-33283.222709086265,-33916.91701613868,-20597.110163821002,-28410.29654864032
16063.863463862357,5410.8655942518235,-22327.313998617414,-30418.086697827184,-33428.73256549032,-33876.527413907934,-20663.56190008663,-28333.7865273698
16049.468940433138,5460.262949498052,-22278.83306489385,-30358.04991222023,-33489.43990343093,-33830.86279998574,-20676.883539781993,-28312.865294559637
16047.390228198796,5431.9432892731775,-22261.130483285247,-30373.67378159449,-33345.42761390538,-33864.92685853563,-20605.089736591548,-28387.028382662345
16061.382420227817,5373.225256589086,-22310.12550713128,-30438.091509114685,-33267.88941238992,-33922.72846969706,-20584.704945648307,-28421.00303423441
16071.775981399534,5392.760681243024,-22331.382016108277,-30429.64254971058,-33405.19617857888,-33895.16876878366,-20655.783493016184,-28355.646533447092
16059.75074288258,5451.188141249197,-22285.739753930542,-30367.504700124828,-33501.21927275888,-33835.24374189899,-20698.22945573681,-28321.1354400081
16039.41065542825,5432.569138117926,-22270.138236300736,-30371.907993782523,-33385.10196031356,-33859.0930532328,-20640.4725480643,-28386.536644284326
16053.22403350163,5376.39920430174,-22306.549228018433,-30431.698910200466,-33271.01865661367,-33916.91701613868,-20595.79141089814,-28432.737700073445
16072.558292455471,5390.212582375119,-22327.582219550877,-30431.698910200466,-33368.27109673871,-33898.23095777404,-20643.37827484349,-28365.32483879624
16065.830417374424,5451.769286605035,-22285.44918125262,-30363.414330889504,-33495.22900524485,-33838.708262289554,-20688.14881898747,-28310.384250925097
16056.018001558543,5453.691536628192,-22254.715532626575,-30350.80794701671,-33407.163132090944,-33846.82194552683,-20646.060484178124,-28372.812673188768
16062.544710939494,5395.509945811027,-22294.79221043494,-30411.649395424058,-33274.68434270434,-33906.881082878244,-20597.803067899116,-28440.784328077356
16072.267719777552,5384.267018350008,-22333.013693453515,-30433.30823580125,-33339.571456858095,-33905.71879216657,-20626.569763013096,-28380.23345234793
16068.490274964604,5443.499141156572,-22294.65809996821,-30375.05958975072,-33479.471025403865,-33840.5858088238,-20687.858246309548,-28310.875989303113
16050.94415556719,5461.268777998541,-22257.397741961213,-30351.634961561558,-33433.42643182593,-33837.30010238887,-20664.32185939811,-28356.47354799194
16045.579736897915,5396.515774311516,-22292.668794711684,-30408.855427367143,-33282.97683989726,-33907.9539666121,-20605.782640669662,-28433.251790195918
16061.31536499445,5367.816134430902,-22334.13128067628,-30443.8359074397,-33312.83877048955,-33920.82857141836,-20623.66403623391,-28401.221740391466
16061.583585927916,5425.103655469854,-22319.93792294716,-30395.332621971684,-33467.57989735364,-33850.197058939586,-20685.89129279748,-28317.469753917427
16043.948059552678,5456.194932007186,-22274.92150961417,-30352.193755172942,-33462.08136821763,-33825.163105149644,-20672.927281013406,-28334.725300636925
16052.84405384589,5412.1619954302305,-22274.206253791603,-30388.24711897935,-33296.365534825985,-33878.76258835347,-20605.782640669662,-28410.05067945131
16063.438780717706,5375.460431034617,-22330.107966674324,-30440.326683560215,-33290.39761905642,-33916.62644346076,-20611.638797716954,-28405.423868349062
16061.807103372468,5421.192100190175,-22327.626923039785,-30408.810723878232,-33449.02794945573,-33870.58184988282,-20682.80675206265,-28329.472640689928
16046.69732412068,5467.750783890579,-22277.201387548612,-30356.842918019644,-33487.24943247431,-33837.814192511345,-20695.591949891084,-28339.285056505807
16042.361085696351,5427.584699104393,-22275.279137525456,-30385.83313057818,-33324.059346206115,-33882.830605844334,-20617.070271619592,-28411.503542840906
16052.553481167972,5373.448774033639,-22332.879582986785,-30449.468547042437,-33282.99919164171,-33934.61959774728,-20607.771945926186,-28421.226551678963
16067.126818552832,5415.134777442787,-22330.4208910967,-30419.986596105886,-33421.26708284224,-33884.64109714521,-20675.743600814774,-28343.0401495743
16048.12783576582,5465.649719911781,-22282.096419584326,-30356.462938363904,-33485.57305164016,-33828.60527379576,-20692.507409156253,-28321.113088263643
16036.08024550441,5434.781960819002,-22277.581367204355,-30374.47844439488,-33354.99416053226,-33869.777187082436,-20630.45896654832,-28398.025440934354
16046.183233998208,5378.7014339806365,-22326.84461198385,-30437.040977125285,-33268.64937170141,-33930.596283745326,-20602.69809993483,-28431.575409361772
16058.610803915359,5403.221297648108,-22338.46751910061,-30421.618273451124,-33395.47316974082,-33905.89760612221,-20658.51040583973,-28358.32874278173
16050.519472422538,5465.537961189504,-22285.292719041434,-30359.30160990973,-33499.6099471581,-33842.284541402405,-20695.882522569005,-28318.564989395738
16048.351353210373,5463.123972788331,-22253.329724470346,-30354.183060429463,-33378.7764166327,-33848.56538159435,-20639.958457941826,-28375.80780694578
16056.241519003097,5399.600315046348,-22304.78344020646,-30425.909808386543,-33270.28104904664,-33918.10165859481,-20611.2141145723,-28429.921380272077
16064.93634759621,5404.1153674263205,-22333.170155664702,-30432.704738700955,-33368.293448483164,-33903.17069329866,-20656.342286627565,-28372.52210051085
16060.913033594255,5476.311502016963,-22283.281062040456,-30358.29578140924,-33487.987040041335,-33833.634416298206,-20690.920435299926,-28302.695250832472
16047.345524709885,5478.501972973582,-22252.905041325695,-30341.420214345482,-33405.37499253452,-33838.61885531174,-20644.56291729962,-28353.858393890667
16055.950946325178,5410.552669829449,-22289.718364443586,-30406.888473855077,-33269.655200201894,-33908.557463712394,-20595.27732077567,-28424.66872032508
16072.468885477649,5399.2426871350635,-22324.74354800505,-30429.374328777118,-33337.2692271792,-33912.93840562563,-20631.531850282176,-28380.72519072595
16058.610803915359,5448.997670292577,-22301.162457604703,-30371.080979237675,-33493.664383132986,-33851.247590928986,-20696.82129583613,-28314.27345446032
16038.427178672217,5466.409679223261,-22264.997335076016,-30341.666083534492,-33445.272856387244,-33842.016320468945,-20667.920490255416,-28348.65043743258
16043.925707808223,5413.458396608638,-22292.08764935585,-30393.790351604268,-33286.866043432485,-33902.65660317619,-20596.350204509523,-28418.007900477398
16061.60593767237,5388.536201540971,-22333.214859153613,-30434.001139879365,-33313.0622879341,-33918.056955105894,-20615.79622218564,-28395.0526589218
16067.126818552832,5445.153170246264,-22299.195504092637,-30386.235461978373,-33467.781063053735,-33860.1435852222,-20677.867016538028,-28309.84780905817
16047.792559598991,5480.714795674658,-22253.84381459282,-30341.95665621241,-33457.56631583766,-33833.27678838692,-20664.008934975736,-28321.537771408293
16041.377608940318,5423.293164168974,-22272.97690784656,-30393.87975858209,-33302.57931978456,-33897.38159148474,-20604.597998213532,-28411.436487607538
16057.470864948138,5380.713090981614,-22322.776594492985,-30446.7863377078,-33296.991383670735,-33933.881990180256,-20612.55521923962,-28411.123563185163
16061.583585927916,5424.343696158373,-22315.89225720075,-30410.531808201293,-33451.53134483473,-33885.8480913458,-20679.76691481673,-28328.287998233798
16036.951963538166,5464.3980222222835,-22274.139198558238,-30355.34535114114,-33484.72368535086,-33838.238875655996,-20678.29169968268,-28326.812783099747
16047.613745643348,5438.894681798778,-22258.11299778378,-30374.143168228053,-33321.69006129385,-33870.961829538566,-20593.042146330135,-28402.0040514474
16062.790580128501,5391.061948664421,-22306.6162832518,-30430.916599144533,-33269.49873799071,-33915.57591147136,-20577.239463000235,-28412.39761261912
16067.283280764019,5423.449626380161,-22317.233361868068,-30412.208189035442,-33415.27681532822,-33879.813120342864,-20643.37827484349,-28344.940047853
16052.329963723418,5478.054938084476,-22269.579442689355,-30353.065473206698,-33486.042438273726,-33829.1864191516,-20665.819426276616,-28328.958550567455
16040.751760095569,5444.7955423349795,-22265.198500776114,-30376.043066506754,-33360.35857920153,-33866.066797502855,-20606.967283125792,-28403.166342159075
16061.65064116128,5388.871477707801,-22308.136201874757,-30439.544372504282,-33269.36462752397,-33916.313519038384,-20575.69719263282,-28436.62690360867
16071.284243021519,5406.037617449477,-22331.963161464115,-30437.063328869743,-33391.6286696945,-33885.624573901245,-20630.570725270598,-28364.408417273575
16055.012173058054,5459.458286697661,-22290.567730732888,-30379.954621786434,-33497.46417969038,-33827.59944529527,-20665.260632665235,-28328.735033122903
16045.713847364646,5446.963661547144,-22261.532814685444,-30378.166482230008,-33385.23607078029,-33841.74809953548,-20608.062518604103,-28392.683374009535
16060.398943471784,5394.124137654798,-22300.69307097114,-30440.863125427142,-33263.17319430986,-33902.03075433144,-20558.26283195768,-28445.098214757232
16066.523321452538,5397.745120256558,-22334.93594347667,-30453.737730233403,-33361.252648979746,-33890.13962628122,-20604.441536002345,-28385.217891361463
16061.203606272175,5463.682766399714,-22291.931187144663,-30390.30347946924,-33494.58080465565,-33821.34095684779,-20653.548318570654,-28318.18500974
16054.006344557565,5468.466039713149,-22256.727189627552,-30370.9692205154,-33409.77828619222,-33824.64901502717,-20606.18497206986,-28368.655248720082
16058.409638215262,5405.747044771558,-22287.79611442043,-30438.7844131928,-33263.91080187688,-33891.436027459626,-20543.24245968371,-28439.30911294331
16070.636042432314,5391.643094020259,-22334.667722543207,-30470.680352530522,-33330.58605558706,-33901.76253339798,-20578.960547323295,-28404.060411937287
16069.496103465093,5459.167714019742,-22298.97198664808,-30410.621215179115,-33488.121150508065,-33829.85697148526,-20645.3228766111,-28334.121803536633
16059.884853349311,5485.22984805463,-22254.939050071127,-30379.01584851931,-33441.51776331875,-33812.62377651021,-20620.154812354423,-28363.38023702863
16065.450437718682,5429.439893894183,-22272.440465979635,-30427.07209909822,-33276.62894447195,-33873.822852828845,-20550.39501790941,-28435.15168847462
16073.072382577942,5387.843297462857,-22325.615266038807,-30476.98354446692,-33303.47338956277,-33902.85776887629,-20575.31721297708,-28417.11383069919
16074.949929112188,5447.097772013876,-22294.211065079104,-30420.992424606375,-33461.16494669497,-33834.43907909859,-20641.925411453893,-28332.55718142476
16053.760475368557,5477.473792728638,-22245.953648800096,-30374.836072306167,-33456.605190826085,-33807.25935784094,-20631.37538807099,-28346.258800775864
16044.663315375248,5419.9627542451335,-22261.912794341184,-30424.50164848586,-33305.373287841474,-33874.8957365627,-20576.479503688755,-28439.10794724321
16067.752667397579,5386.457489306627,-22309.097326886338,-30468.22166064044,-33283.24506083072,-33899.52735895245,-20571.428009441854,-28429.094365727233
16083.04126060501,5437.285356197996,-22297.11679185829,-30429.68725319949,-33438.03089118372,-33845.59259958179,-20634.594039272553,-28342.257838518362
16069.585510442916,5482.771156164546,-22241.840927820318,-30372.690304838456,-33475.02302825726,-33802.45373278305,-20644.495862066255,-28334.971169825934
16054.788655613502,5434.401981163262,-22260.526986184956,-30415.78446814829,-33331.88245676547,-33861.35057942278,-20590.337585251043,-28426.188638948042
16060.622460916336,5377.695605480148,-22325.972893950093,-30484.40432362608,-33282.90978466389,-33913.877178892755,-20580.368707223977,-28449.747377603937
16078.861484391868,5424.567213602926,-22314.819373466897,-30448.26155284185,-33415.32151881713,-33868.23491671502,-20636.35982708452,-28365.45894926297
16062.254138261575,5475.864467127856,-22268.685372911143,-30384.715543355414,-33494.8043221002,-33815.97653817851,-20665.014763476225,-28337.56397218275
16043.076341518921,5440.816931821934,-22265.869053109775,-30404.765058131823,-33372.83085260759,-33855.784995053415,-20620.445385032344,-28422.880580768655
16064.578719684927,5401.433158091683,-22290.523027243977,-30454.341227333694,-33267.93411587884,-33902.72365840956,-20577.284166489146,-28449.412101437105
16075.620481445847,5419.31455365593,-22309.74552747554,-30445.087605129196,-33385.21371903583,-33875.342771451804,-20626.368597313,-28379.65230699209
16064.064629562454,5478.300807273485,-22272.239300279536,-30387.19658698995,-33496.100723278614,-33821.07273591432,-20669.820388534117,-28338.659207661058
16061.740048139101,5481.787679408512,-22242.377369687245,-30377.16065372952,-33379.29050675518,-33829.8346197408,-20609.85065816053,-28387.43071406254
16060.46599870515,5407.579887816893,-22299.374318048278,-30456.017608167844,-33266.235383300234,-33909.94327186862,-20575.272509488168,-28448.49567991444
16072.334775010917,5404.361236615328,-22327.85044048434,-30469.741579263402,-33365.25361123724,-33902.81306538738,-20626.793280457652,-28397.868978723167
16065.450437718682,5471.014138581055,-22281.805846906405,-30402.328717986195,-33488.746999352814,-33823.754945248955,-20671.65323157945,-28325.717547621436
16044.305687463962,5470.947083347689,-22252.435654692134,-30390.169369002506,-33409.80063793667,-33827.59944529527,-20626.234486846268,-28372.65621097758
16048.418408443738,5404.987085460078,-22287.594948720332,-30445.512288273847,-33269.811662413085,-33894.09588504981,-20572.478541431254,-28445.20997347951
16066.724487152636,5395.062910921921,-22326.4199288392,-30464.019532682843,-33329.088488708556,-33896.84514961781,-20601.804030156618,-28401.33349911374
16064.42225747374,5450.763458104546,-22296.55799824691,-30411.470581468417,-33483.583746383636,-33839.356462878764,-20664.053638464648,-28330.970207568433
16054.095751535388,5476.758536906068,-22235.87301205075,-30373.96435427241,-33431.079498658124,-33820.93862544759,-20633.141175882956,-28354.75246366888
16051.301783478473,5417.660524566237,-22271.792265390428,-30434.291712557282,-33287.58129925505,-33884.70815237858,-20576.88183508895,-28439.890258299147
16065.048106318487,5388.245628863052,-22331.85140274184,-30480.671582302046,-33312.68230827836,-33914.27951029295,-20597.847771388027,-28422.545304601827
16071.150132554787,5445.287280712996,-22304.26935008399,-30430.111936344143,-33466.797586297704,-33843.60329432527,-20658.13042618399,-28332.98186456941
16048.574870654926,5475.551542705482,-22255.229622749048,-30386.72720035639,-33463.869507774056,-33813.96488117753,-20650.307315624636,-28343.688350163502
16042.741065352091,5421.9297077572,-22271.74756190152,-30428.16733457653,-33307.38494484245,-33868.726655093036,-20581.01690781318,-28428.781441304858
16061.337716738906,5384.557591027927,-22318.79798397994,-30472.647306042592,-33288.4083137999,-33909.58564395734,-20585.196684026323,-28430.72604307247
16077.22980704663,5436.815969564434,-22305.588103006852,-30427.96616887643,-33436.890952216505,-33851.31464616235,-20649.99439120226,-28344.33655075271
16066.74683889709,5484.872220143345,-22250.55810815789,-30368.35406641413,-33473.88308929004,-33807.59463400777,-20658.845682006562,-28330.79139361279
16046.898489820778,5437.307707942451,-22261.935146085638,-30402.708697641934,-33327.546218341144,-33858.13192822122,-20596.998405098726,-28416.353871387706
16060.711867894159,5382.992968916055,-22310.08080364237,-30463.952477449475,-33267.352970522996,-33903.7518386545,-20577.060649044593,-28436.716310586493
16066.791542386001,5413.681914053192,-22316.45105081213,-30443.098299872676,-33410.47119027033,-33867.96669578156,-20644.451158577343,-28354.461890990962
16058.9907835711,5473.897513615789,-22260.79520711842,-30376.82537756269,-33480.096874248615,-33815.708317245044,-20665.685315809886,-28316.84390507268
16053.067571290443,5455.859655840356,-22247.78649184543,-30384.49202591086,-33346.88047729498,-33841.234009413005,-20603.07807959057,-28389.37531583015
16061.471827205638,5393.54299229896,-22301.251864582526,-30453.17893662202,-33255.70771166178,-33898.96856534106,-20573.43966644283,-28430.033138994353
16067.506798208571,5405.255306393541,-22326.75520500603,-30458.74452099139,-33385.95132660286,-33888.351486724794,-20641.478376564788,-28370.1975190875
16060.80127487198,5477.898475873289,-22278.27427128247,-30388.738857357366,-33495.743095367325,-33829.45464008506,-20681.510350884244,-28323.348262709173
16041.735236851602,5464.643891411292,-22260.325820484857,-30387.64362187906,-33393.327402273106,-33846.061986215354,-20633.856431705528,-28388.548301285304
16050.072437533432,5400.114405168821,-22297.630881980764,-30448.373311564126,-33267.710598434285,-33899.01326882998,-20583.050916558615,-28437.25275245342
16066.612728430358,5399.801480746446,-22323.89418171575,-30460.39855008108,-33348.579209873584,-33894.028829816445,-20621.250047832735,-28375.09255112321
16063.818760373446,5467.482562957116,-22278.07310558237,-30389.25294747984,-33477.794644569716,-33825.856009227755,-20667.6299175775,-28316.910960306046
16045.60208864237,5468.309577501962,-22250.51340466898,-30375.618383362103,-33408.012498380245,-33825.14075340518,-20629.207268858823,-28364.251955062387
16050.340658466896,5404.607105804337,-22280.710611428098,-30436.616293980635,-33263.68728443233,-33893.112408293775,-20576.41244845539,-28434.48113614096
16068.445571475695,5393.654751021237,-22322.17309739269,-30461.382026837116,-33321.51124733821,-33905.562329955384,-20608.956588382316,-28395.410286833085
16079.08500183642,5468.778964135524,-22281.582329461853,-30388.045953279252,-33467.55754560918,-33821.07273591432,-20657.973963972803,-28302.203512454453
16055.302745735973,5482.659397442269,-22247.40651218969,-30361.469729121894,-33433.314673103654,-33816.08829690079,-20640.249030619747,-28335.50761169286
16051.435893945205,5421.326210656906,-22271.546396201422,-30415.44919198146,-33286.083732376545,-33884.149358767194,-20589.667032917387,-28424.28874066934
16070.032545332022,5392.715977754114,-22312.830068210373,-30450.608486009656,-33301.68525000635,-33900.15320779719,-20603.368652268487,-28402.831065992246
16071.70892616617,5449.131780759309,-22298.59200699234,-30405.212093020928,-33453.85592625808,-33841.97161698003,-20662.354905886044,-28318.117954506633
16054.56513816895,5485.185144565719,-22257.218928005568,-30361.514432610806,-33476.40883641349,-33813.02610791041,-20668.81456003363,-28337.1392890381
16050.74298986709,5435.6983823416695,-22264.505596698,-30403.31219474223,-33312.57054955608,-33867.385550425715,-20599.50180047772,-28419.930150500557
16060.376591727329,5383.819983460901,-22321.301379358934,-30469.45100658548,-33288.29655507762,-33913.6536614482,-20596.21609404279,-28421.606531334703
16069.205530787174,5430.8257020504125,-22314.305283344424,-30429.35197703266,-33438.500277817286,-33854.17566945263,-20660.23149016279,-28335.90994309306
16060.667164405248,5481.340644519406,-22257.330686727844,-30370.544537370748,-33479.98511552633,-33807.192302607575,-20669.3286501561,-28320.978977796913
16050.251251489075,5440.2134347216415,-22264.21502402008,-30398.93125282899,-33336.26339867871,-33856.52260262044,-20609.02364361568,-28405.915606727078
16061.762399883557,5382.948265427144,-22307.398594307735,-30462.7901867378,-33275.041970615624,-33908.69157417912,-20586.135457293447,-28428.222647693474
16071.41835348825,5415.581812331893,-22316.808678723417,-30446.965151663444,-33410.20296933687,-33878.024980786446,-20648.876803979496,-28353.724283423937
16050.541824166994,5466.566141434449,-22277.89429162673,-30384.939060799967,-33500.68283089195,-33819.55281729136,-20688.37233643202,-28327.349224966674
16035.767321082036,5439.878158554811,-22265.578480431854,-30402.976918575398,-33377.70353289885,-33852.52164036294,-20640.070216664102,-28404.798019504313
16058.789617871002,5394.504117310538,-22305.74456521804,-30460.42090182554,-33273.857328159495,-33905.964661355574,-20606.766117425697,-28447.400444436127
16072.42418198874,5415.40299837625,-22321.681359014674,-30456.375236079126,-33378.91052709943,-33887.5468239244,-20642.193632387356,-28373.95261215599
16066.500969708082,5476.713833417158,-22273.379239246755,-30390.705810869436,-33489.596365642115,-33824.85018072727,-20678.51521712723,-28320.956626052455
16049.26777473304,5460.799391364979,-22261.488111196533,-30393.231557992884,-33404.883254156506,-33842.99979722498,-20648.51917606821,-28393.62214727666
16060.488350449605,5400.203812146641,-22296.066259868894,-30453.64832325558,-33276.651296216405,-33905.11529506627,-20599.6135592,-28445.47819441297
16074.167618056254,5398.750948757047,-22319.468536313598,-30460.0409221698,-33355.932933799384,-33894.162940283175,-20626.212135101814,-28374.354943556184
16062.947042339689,5457.468981441139,-22288.198445820624,-30401.144075530065,-33487.87528131906,-33833.99204420949,-20678.76108631624,-28309.35607068015
16048.239594488097,5466.521437945537,-22251.429826191645,-30382.815645076713,-33428.2408271123,-33832.40507035316,-20650.731998769286,-28361.7932631723
16052.84405384589,5407.579887816893,-22282.208178306602,-30438.292674814784,-33279.668781717875,-33888.88792859172,-20597.64660568793,-28438.0127117649
16065.673955163236,5396.091091166865,-22331.180850408182,-30464.153643149573,-33333.20120968833,-33903.729486910044,-20625.94391416835,-28400.37237410216
16060.935385338711,5456.172580262731,-22302.83883843885,-30410.464752967928,-33489.81988308667,-33844.944398992586,-20687.500618398266,-28325.85165808817
16049.51364392205,5487.107394588876,-22254.78258785994,-30369.672819336993,-33445.04933894269,-33825.3866225942,-20660.030324462692,-28349.18687929951
16052.46407419015,5430.423370650216,-22275.145027058727,-30421.707680428946,-33285.30142132061,-33879.43314068713,-20591.254006773714,-28426.14393545913
16069.294937764997,5396.336960355873,-22320.384957836268,-30464.13129140512,-33294.17506386937,-33904.24357703252,-20602.02754760117,-28406.697917783014
16076.358089012872,5450.294071470985,-22299.59783549283,-30410.911787857032,-33447.70919653287,-33846.59842808228,-20667.920490255416,-28317.581512639706
16057.359106225862,5484.983978865621,-22259.476454195556,-30366.811796046713,-33464.204783940884,-33813.85312245526,-20674.782475803197,-28329.874972090125
16046.116178764843,5430.423370650216,-22271.099361312314,-30412.029375079797,-33313.95635771231,-33872.32528595034,-20614.924504151884,-28419.840743522735
16072.491237222104,5396.582829544882,-22303.55409426142,-30457.06814015724,-33270.9516013803,-33906.72462066706,-20596.327852765065,-28418.745508044423
16078.906187880779,5438.715867843136,-22307.867980941293,-30425.06044209724,-33417.869617685035,-33858.914239277154,-20655.51527208272,-28331.260780246354
16063.863463862357,5483.642874198303,-22257.86712859477,-30368.175252458484,-33471.53615612223,-33816.82590446781,-20672.502597868755,-28321.426012686017
16042.986934541099,5432.9938212625775,-22267.41132347719,-30403.155732531042,-33339.45969813582,-33869.486614404515,-20623.284056578166,-28411.34708062972
16051.257079989564,5373.53818101146,-22324.56473404941,-30470.70270427498,-33276.31602004958,-33922.46024876359,-20612.801088428627,-28440.33729318825
16065.182216785219,5407.132852927787,-22327.649274784242,-30447.523945274825,-33405.9337861459,-33883.545861666906,-20674.871882781015,-28362.106187594676
16057.9402515817,5473.092850815398,-22272.284003768447,-30372.176214715986,-33480.923888793455,-33814.92600618911,-20680.258653194745,-28313.51349514884
16040.260021717551,5445.711963857647,-22258.828253606353,-30385.855482322633,-33363.197250747355,-33852.074605473834,-20630.078986892582,-28393.689202510024
16062.812931872957,5398.415672590217,-22289.807771421405,-30437.443308525482,-33248.17517378034,-33904.42239098816,-20589.667032917387,-28430.279008183363
16072.692402922203,5405.344713371363,-22315.445222311642,-30442.31598881674,-33360.336227457075,-33885.624573901245,-20639.019684674702,-28360.921545138546
16052.642888145792,5453.289205227996,-22278.989527105037,-30389.11883701311,-33483.449635916906,-33825.02899468291,-20688.57350213212,-28316.9333120505
16033.666257103236,5441.778056833513,-22262.315125741377,-30393.87975858209,-33391.06987608312,-33848.76654729444,-20641.813652731616,-28383.742676227415
16046.786731098502,5383.194134616153,-22294.83691392385,-30452.329570332717,-33256.378263995444,-33906.2999375224,-20586.493085204733,-28440.851383310724
16071.016022088055,5387.39626257375,-22314.03706241096,-30456.799919223777,-33332.79887828814,-33896.1522455397,-20623.105242622525,-28381.373391315152
16065.048106318487,5446.002536535566,-22285.739753930542,-30397.97012781741,-33475.80533931319,-33832.47212558653,-20679.18576946089,-28310.048974758265
16047.546690409983,5450.674051126725,-22266.047867065416,-30382.659182865526,-33418.09313512959,-33839.22235241203,-20654.04005694867,-28362.888498650613
16058.633155659814,5399.957942957633,-22281.895253884228,-30430.894247400076,-33269.56579322407,-33903.66243167668,-20595.590245198044,-28437.073938497775
16063.975222584633,5381.2271811040855,-22320.876696214284,-30460.59971578118,-33313.93400596786,-33908.848036390315,-20618.724300709284,-28392.951594943
16059.326059737929,5434.558443374449,-22306.549228018433,-30412.856389624645,-33476.185318968935,-33852.18636419611,-20690.339289944088,-28320.755460352357
16050.94415556719,5464.800353622479,-22254.112035526283,-30370.81275830421,-33450.01142621177,-33825.61014003875,-20670.155664700946,-28342.973094340934
16044.529204908516,5409.099806439854,-22282.431695751155,-30425.194552563975,-33300.902938950414,-33890.56430942587,-20613.091661106548,-28425.09340346973
16064.109333051365,5376.77918395748,-22325.92819046118,-30466.478224572926,-33306.9602616978,-33922.840228419336,-20625.27336183469,-28409.983624217944
16072.111257566365,5432.524434629016,-22302.056527382916,-30413.97397684741,-33454.347664636094,-33856.56730610935,-20682.270310195723,-28322.878876075614
16052.776998612524,5474.456307227172,-22259.632916406743,-30364.330752412174,-33470.84325204411,-33819.66457601364,-20677.308222926644,-28327.975073811423
16041.869347318334,5420.543899600971,-22275.100323569815,-30409.88360761209,-33324.34991888403,-33881.936536066125,-20627.95557116933,-28416.823258021268
16061.85180686138,5378.589675258359,-22317.970969435093,-30455.07883490072,-33283.982668397744,-33911.7537631695,-20617.584361742065,-28415.973891731966
16070.233711032119,5419.873347267312,-22312.092460643347,-30421.059479839743,-33427.57027477864,-33859.338922421804,-20663.450141364356,-28327.617445900138
16048.731332866113,5466.253217012074,-22269.244166522523,-30365.649505335037,-33487.54000515223,-33818.56934053532,-20686.360679431044,-28316.79920158377
16038.360123438852,5432.904414284756,-22267.813654877384,-30389.096485268652,-33350.25559070773,-33860.00947475547,-20636.56099278462,-28398.271310123364
16055.392152713795,5379.483745036572,-22317.166306634703,-30454.74355873389,-33277.18773808333,-33915.50885623799,-20619.84188793205,-28424.311092413795
16061.538882439005,5402.26017263653,-22330.733815519074,-30439.969055648933,-33411.20879783735,-33884.55169016739,-20676.347097915066,-28349.09747232169
16043.992763041588,5457.089001785398,-22284.376297518767,-30371.259793193316,-33505.01906931628,-33823.30791035985,-20692.797981834174,-28305.153942722554
16032.973353025121,5440.369896932829,-22260.884614096238,-30377.451226407436,-33375.714227642326,-33849.638265328205,-20629.073158392093,-28373.058542377777
16050.206548000164,5382.814154960412,-22291.618262722288,-30436.012796880343,-33248.46574645826,-33900.242614775016,-20578.893492089926,-28410.631824807147
16064.198740029186,5395.129966155287,-22320.27319911399,-30438.73970970389,-33361.63262863548,-33885.915146579166,-20638.46089106332,-28351.33264676722
16057.336754481406,5458.139533774797,-22281.60468120631,-30374.657258350526,-33490.33397320914,-33825.69954701657,-20692.23918822279,-28305.332756678195
16039.812986828447,5450.204664493163,-22255.16256751568,-30368.28701118076,-33396.00961160775,-33842.4857071025,-20646.909850467426,-28364.721341695946
16044.305687463962,5383.1047276383315,-22294.054602867916,-30435.386948035593,-33260.6027436975,-33909.831513146346,-20598.004233599215,-28428.982607004957
16055.839187602902,5379.1708206141975,-22328.006902695528,-30449.64736099808,-33344.26532319371,-33904.28828052143,-20645.23346963328,-28378.24414709141
16047.993725299088,5435.474864897116,-22299.016690136992,-30393.566834159716,-33496.033668045246,-33842.93274199161,-20705.29260698469,-28314.094640504678
16032.526318136015,5449.22118773713,-22259.029419306447,-30366.47651987988,-33431.25831261377,-33833.81323025384,-20667.47345536631,-28350.572687455737
16030.089977990387,5380.333111325874,-22299.08374537036,-30429.97782587741,-33282.373342796964,-33901.40490548669,-20607.12374533698,-28423.506429613404
16056.733257381113,5365.044518118443,-22326.57639105039,-30457.828099468723,-33316.77267751368,-33914.32421378186,-20628.067329891604,-28394.739734499424
16054.095751535388,5428.322306671418,-22299.910759915205,-30400.78644761878,-33472.92196427846,-33850.97936999552,-20690.85338006656,-28315.815724827735
16032.481614647106,5457.625443652326,-22263.83504436434,-30366.275354179783,-33458.59449608261,-33830.683986030104,-20678.67167933842,-28343.66599841905
16030.201736712665,5401.746082514058,-22287.907873142707,-30416.678537926502,-33306.423819830874,-33894.54291993892,-20623.37346355599,-28428.043833737833
16055.839187602902,5375.460431034617,-22320.80964098092,-30450.966113920942,-33300.634718016954,-33918.16871382818,-20623.105242622525,-28401.512313069383
16061.31536499445,5427.405885148751,-22303.352928561322,-30407.223750021905,-33452.09013844611,-33856.85787878727,-20682.873807296015,-28313.200570726465
16045.22210898663,5465.806182122968,-22259.74467512902,-30358.586354087158,-33478.979287025846,-33818.61404402424,-20691.99331903378,-28323.281207475808
16041.22114672913,5420.9685827456215,-22267.92541359966,-30393.030392292785,-33322.56177932761,-33870.93947779411,-20622.904076922427,-28406.094420682723
16061.583585927916,5376.689776979659,-22312.22657111008,-30447.970980163933,-33283.06624687508,-33920.158019084694,-20613.94102739585,-28411.52589458536
16062.36589698385,5405.322361626907,-22319.781460735972,-30425.663939197537,-33435.03575742671,-33886.49629193501,-20687.76883933173,-28342.8389838742
16042.271678718529,5458.050126796977,-22268.193634533123,-30363.59314484515,-33486.3553626961,-33823.620834782225,-20696.642481880484,-28322.74476560888
16034.336809436896,5427.919975271222,-22260.459930951587,-30381.787464831767,-33337.045709734644,-33859.67419858863,-20621.585323999563,-28389.19650187451
16061.85180686138,5378.790840958458,-22294.65809996821,-30435.051671868765,-33249.33746449202,-33903.81889388787,-20581.575701424565,-28403.412211348084
16073.541769211504,5404.2941813819625,-22312.22657111008,-30424.948683374965,-33381.50332945625,-33871.095940005296,-20643.154757398934,-28329.07030928973
16056.621498658837,5461.2911297429955,-22268.037172321936,-30368.510528625317,-33479.09104574812,-33819.79868648037,-20689.3334614436,-28299.27543393081
16041.399960684772,5444.393210934783,-22253.463834937076,-30374.769017072802,-33363.957210058834,-33847.26898041594,-20641.187803886867,-28371.18099584353
16050.765341611546,5386.546896284449,-22302.525914016478,-30433.777622434813,-33258.36756925197,-33908.848036390315,-20600.35116676702,-28420.39953713412
16065.539844696505,5393.498288810049,-22320.630827025274,-30436.057500369254,-33359.73273035678,-33892.26304200447,-20645.479338822286,-28357.725245681435
16056.576795169925,5454.384440706306,-22279.4589137386,-30375.953659528932,-33486.601231885106,-33832.31566337534,-20698.028290036713,-28302.449381643462
16040.37178043983,5457.916016330245,-22253.709704126086,-30362.58731634466,-33393.01447785074,-33837.56832332234,-20656.878728494496,-28360.832138160724
16044.484501419605,5398.147451656753,-22292.69114645614,-30420.74655541737,-33260.66979893086,-33898.074495562854,-20605.536771480653,-28419.81839177828
16055.570966669437,5387.552724784938,-22337.528745833486,-30442.204230094463,-33336.10693646752,-33899.63911767473,-20641.791300987163,-28369.258745820374
16051.525300923027,5444.929652801711,-22294.859265668307,-30384.067342766208,-33482.08617950513,-33837.680082044615,-20696.57542664712,-28299.677765331006
16032.615725113837,5455.814952351446,-22248.859375579283,-30355.658275563514,-33420.01538515274,-33823.71024176005,-20658.912737239927,-28334.635893659106
16034.403864670261,5397.3651406008175,-22286.589120219844,-30417.01381409333,-33276.2042613273,-33888.910280336175,-20602.742803423742,-28416.599740576716
16065.830417374424,5390.190230630664,-22314.059414155414,-30440.21492483794,-33307.04966867562,-33901.024925830956,-20622.32293156659,-28381.1498738706
16057.359106225862,5440.816931821934,-22309.253789097525,-30400.16059877403,-33464.27183917425,-33849.79472753939,-20695.52489465772,-28309.624291613614
16039.008324028055,5472.578760692926,-22254.089683781825,-30356.753511041825,-33444.222324397844,-33825.54308480538,-20679.297528183168,-28331.32783547972
16040.304725206463,5417.906393755245,-22266.226681021057,-30398.90890108453,-33285.97197365427,-33870.403035927186,-20609.738899438253,-28408.57546431726
16053.51460617955,5376.041576390455,-22324.07299567139,-30449.69206448699,-33288.36361031099,-33906.881082878244,-20620.31127456561,-28399.098324668208
16059.348411482384,5428.7693415605245,-22305.61045475131,-30403.49100869787,-33442.3447778636,-33855.18149795312,-20684.259615452243,-28315.54750389427
16037.26488796054,5469.538923447004,-22257.844776850317,-30348.61747606009,-33472.49728113381,-33816.87060795672,-20693.155609745456,-28317.1344777506
16027.474823889117,5422.063818223932,-22274.899157869717,-30385.34139220016,-33322.9641107278,-33868.32432369284,-20631.934181682373,-28400.19356014652
16054.967469569145,5378.679082236181,-22324.676492771687,-30440.103166115663,-33274.974915382256,-33916.06764984938,-20623.4181670449,-28412.799944019313
16068.356164497873,5419.225146678108,-22316.339292089855,-30412.610520435635,-33418.40605955196,-33873.107597006274,-20682.516179384733,-28335.08292854821
16059.862501604857,5479.396042751795,-22250.31223896888,-30346.51641208129,-33469.41274039898,-33817.8317329683,-20690.942787044383,-28304.304576433253
16049.066609032943,5447.9694900476325,-22246.4006836892,-30362.16263320001,-33338.096241724044,-33860.00947475547,-20635.733978239772,-28381.395743059606
16062.32119349494,5390.614913775315,-22298.815524436897,-30427.87676189861,-33257.92053436286,-33921.61088247429,-20608.39779477093,-28417.024423721366
16074.547597711993,5417.481710610594,-22308.739698975052,-30414.800991392254,-33387.04656208117,-33889.42437045865,-20664.99241173177,-28348.583382199216
16067.663260419758,5481.60886545287,-22255.676657638152,-30342.470746334882,-33480.87918530455,-33815.64126201168,-20695.077859768615,-28295.497989117863
16061.31536499445,5467.348452490384,-22228.45223289159,-30342.023711445778,-33354.189497731866,-33834.75200352097,-20631.934181682373,-28357.211155558965
16076.179275057231,5406.328190127396,-22270.518215956476,-30410.01771807882,-33241.268484743654,-33899.57206244136,-20584.146152036927,-28407.971967216967
16087.668071707258,5410.686780296181,-22296.625053480275,-30416.00798559284,-33345.00293076073,-33885.71398087907,-20632.60473401603,-28347.59990544318
16058.9907835711,5454.786772106501,-22274.720343914076,-30374.321982183694,-33490.62454588706,-33841.591637324294,-20701.693976127386,-28306.226826456408
16045.89266132029,5458.050126796977,-22239.426939419143,-30362.229688433374,-33398.89298664248,-33848.18540193861,-20654.643554048962,-28363.290830050806
16056.17446376973,5398.236858634575,-22275.390896247733,-30419.405450750048,-33251.93026684884,-33904.73531541054,-20583.140323536438,-28421.606531334703
16073.27354827804,5393.118309154309,-22305.275178584478,-30435.096375357676,-33314.3139856236,-33897.11337055128,-20607.83900115955,-28374.89138542311
16068.982013342622,5455.03264129551,-22269.44533222262,-30376.668915351504,-33457.56631583766,-33827.91236971765,-20660.43265586289,-28301.443553142974
16044.104521763866,5462.520475688038,-22246.333628455835,-30357.267601164294,-33424.2398648548,-33824.604311538256,-20650.50848132473,-28349.253934532873
16051.36883871184,5410.418559362717,-22276.39672474822,-30408.45309596695,-33269.72225543526,-33879.813120342864,-20589.957605595304,-28429.720214571982
16068.289109264508,5383.283541593974,-22324.5200305605,-30448.529773775314,-33304.16629364089,-33895.61580367277,-20604.55329472462,-28402.831065992246
16065.60689992987,5436.413638164239,-22296.401536035723,-30402.574587175204,-33451.93367623493,-33844.810288525856,-20663.405437875444,-28331.573704668728
16050.273603233529,5467.236693768107,-22246.713608111575,-30359.949810498932,-33443.596475553095,-33809.360421819736,-20647.13336791198,-28346.527021709328
16045.535033409005,5412.743140786069,-22267.277213010457,-30409.704793656445,-33283.80385444211,-33864.36806492425,-20576.07717228856,-28423.931112758055
16064.869292362846,5379.260227592019,-22314.439393811153,-30456.777567479323,-33275.57841248255,-33891.48073094854,-20581.866274102482,-28414.722194042468
16061.583585927916,5418.331076899895,-22309.94669317564,-30427.027395609308,-33433.113507403556,-33838.372986122726,-20639.46671956381,-28329.60675115666
16040.505890906561,5453.333908716906,-22268.46185546659,-30385.184929988973,-33468.988057254326,-33803.68307872809,-20648.742693512762,-28331.79722211328
16046.160882253753,5420.163919945231,-22263.767989130974,-30416.745593159867,-33313.285805378655,-33853.549820607885,-20584.570835181577,-28421.271255167874
16056.08505679191,5369.000776887033,-22315.914608945204,-30477.207061911475,-33261.54151696462,-33904.511797965984,-20573.752590865206,-28439.800851321324
16071.37364999934,5413.614858819826,-22311.488963543055,-30444.081776628707,-33404.74914368977,-33849.50415486147,-20634.392873572455,-28355.84769914719
16049.26777473304,5462.006385565565,-22267.232509521546,-30393.34331671516,-33476.67705734695,-33801.671421727115,-20664.455969864845,-28336.17816402652
16038.158957738753,5435.899548041767,-22254.4026082042,-30412.945796602464,-33344.399433660445,-33837.50126808897,-20609.02364361568,-28414.34221438673
16048.485463677105,5372.197076344142,-22308.180905363668,-30482.347963136195,-33260.11100531948,-33903.57302469886,-20577.261814744692,-28450.239115981953
16060.46599870515,5393.028902176488,-22322.195449137147,-30470.546242063792,-33375.446006708866,-33866.93851553661,-20620.98182689927,-28372.90208016659
16061.51653069455,5461.0005570650765,-22259.431750706644,-30399.221825506906,-33472.09494973361,-33798.56452924783,-20659.35977212903,-28326.544562166284
16051.592356156392,5452.886873827801,-22240.41041617518,-30395.39967720505,-33353.60835237603,-33820.201017880565,-20603.2121900573,-28390.224682119453
16058.253176004075,5390.883134708779,-22285.06920159688,-30464.13129140512,-33241.87198184395,-33885.08813203432,-20565.21422448328,-28445.85817406871
16065.13751329631,5390.9725416865995,-22320.00497818053,-30474.323686876738,-33351.864916308514,-33879.92487906515,-20625.69804497934,-28390.51525479737
16056.442684703194,5454.339737217395,-22281.98466086205,-30405.994404076864,-33484.79074058423,-33804.465389784025,-20671.988507746282,-28323.147097009078
16036.8849083048,5449.422353437228,-22262.65040190821,-30402.19460751946,-33413.75689670526,-33814.59073002228,-20642.663019020918,-28381.596908759704
16041.958754296156,5389.251457363541,-22287.282024297958,-30459.97386693643,-33263.17319430986,-33884.32817272284,-20584.99551832623,-28448.16040374761
16076.179275057231,5396.225201633597,-22307.398594307735,-30465.852375728176,-33319.00785195921,-33878.494367420004,-20609.69419594934,-28396.796094989313
16069.004365087078,5453.669184883736,-22282.677564940164,-30410.978843090397,-33473.21253695638,-33816.58003527881,-20677.41998164892,-28325.046995287776
16048.530167166016,5468.667205413247,-22248.07706452335,-30379.239365963862,-33428.82197246814,-33803.19134035007,-20651.581365058588,-28358.641667204105
16049.625402644326,5409.368027373317,-22278.162512560193,-30439.25379982636,-33280.60755498499,-33872.57115513935,-20598.74184116624,-28441.29841819983
