Fp1,Fp2,C3,C4,P7,P8,O1,O2
15814.619161441227,5184.330664197286,-22827.635446505006,-30985.41867559179,-34203.6228422669,-34413.88570235798,-20574.400791454413,-28765.041084890498
15828.812519170348,5165.443440132552,-22867.600365591094,-31014.498295128145,-34236.34579614947,-34434.40460376794,-20598.205399299313,-28736.900238621267
15811.311103261842,5217.053618079855,-22851.864737494558,-30967.26905909408,-34387.98003053427,-34381.766245575694,-20657.214004661324,-28662.58068830737
15790.12164951821,5242.512255014451,-22811.966873641835,-30932.623855188354,-34376.22301295078,-34369.204565191816,-20644.451158577343,-28683.25605192853
15807.533658448894,5197.31702772582,-22822.874524936025,-30975.852128964918,-34229.59556932397,-34418.71367916032,-20588.4600387168,-28764.705808723666
15834.84749017328,5172.461887891518,-22865.454598123386,-31014.61005385042,-34240.4808688737,-34449.7826039532,-20608.621312215488,-28760.995419144085
15821.928181878113,5217.075969824311,-22851.66357179446,-30971.98527717415,-34366.07532096807,-34386.23659446676,-20650.55318481364,-28668.146272676742
15785.964225049524,5241.327612558319,-22814.112641109543,-30934.479049978145,-34381.363914175505,-34354.74298652923,-20642.864184721016,-28668.548604076936
15796.26837924342,5203.441405706573,-22818.42652778942,-30967.69374223873,-34246.381729409906,-34412.99163257976,-20593.310367263603,-28761.576564499923
15821.45879524455,5164.616425587706,-22866.929813257437,-31014.587702105964,-34212.34002260447,-34461.964304681336,-20591.946910851828,-28785.40352408928
15810.238219527988,5189.292751466364,-22876.2504906953,-30999.61203332091,-34350.65261729391,-34420.68063267239,-20655.2246994048,-28696.041249756963
15785.740707604971,5234.51033049945,-22827.501336038273,-30949.633532718843,-34396.33958296056,-34371.2609256817,-20649.74852201325,-28655.405778337215
15785.181913993589,5200.379216716196,-22828.641275005495,-30980.6130505339,-34280.24462225969,-34409.750629633745,-20608.956588382316,-28746.332674781406
15815.624989941716,5158.603806329227,-22874.238833694322,-31032.357338947935,-34214.08345867199,-34450.52021152022,-20598.160695810402,-28771.433683804713
15819.022455098922,5183.347187441253,-22882.844255309614,-31015.437068395266,-34320.120134367964,-34433.5775892231,-20637.61152477402,-28701.91975854871
15784.444306426563,5221.836891393291,-22841.00178968928,-30960.09414912393,-34416.41144948143,-34369.98687624775,-20669.596871089565,-28661.843080740346
15782.231483725487,5209.476376709506,-22819.812335945648,-30956.763739200087,-34306.84319816151,-34375.4630536393,-20627.575591513585,-28729.390052484283
15806.259609014942,5160.995442985945,-22862.303002155186,-31009.312690414514,-34208.49552255816,-34441.51245850473,-20603.145134823935,-28785.18000664473
15813.255705029453,5170.651396590638,-22879.379734919043,-31005.37878339038,-34290.124093308936,-34419.33952800507,-20640.2713823642,-28715.48726743308
15795.21784725402,5227.760103673948,-22836.53144079822,-30946.37017802837,-34396.0713620271,-34352.39605336142,-20663.2266239198,-28650.801318979422
15784.310195959832,5217.523004713417,-22812.27979806421,-30945.69962569471,-34324.54577977011,-34369.85276578102,-20631.867126449004,-28707.708860362633
15804.024434569412,5161.978919741979,-22847.1932229034,-31007.926882258285,-34204.91924344531,-34439.2772840592,-20589.06353581709,-28777.535710041015
15808.494783460474,5151.808876014814,-22880.38556341953,-31025.71887084471,-34272.846194844984,-34450.11788012003,-20617.003216386227,-28733.078090319406
15785.539541904873,5205.1848417740875,-22851.28359213872,-30970.75593122911,-34404.94500457585,-34382.548556631635,-20669.149836200457,-28666.82751975388
15781.091544758267,5229.615298463738,-22807.965911384334,-30946.16901232827,-34353.37953011746,-34374.926611772375,-20648.385065601477,-28702.63501437128
15803.823268869313,5172.663053591616,-22838.699560010384,-30998.76266703161,-34214.93282496129,-34436.99740612476,-20589.801143384117,-28773.22182336114
15826.331475535808,5160.771925541392,-22875.53523487273,-31024.981263277685,-34253.355473679956,-34441.49010676028,-20612.93519889536,-28760.704846466168
15814.485050974496,5220.495786725973,-22843.773406001736,-30969.437178306245,-34393.70207711483,-34381.83330080906,-20667.696972810863,-28687.14525546375
15795.396661209663,5238.220720079032,-22804.0320043602,-30935.50723022309,-34369.45043438082,-34355.41353886289,-20625.340417068055,-28684.463046129116
15806.885457859691,5188.64455087716,-22823.52272552523,-30983.585832546454,-34233.1271449479,-34415.85265587004,-20563.6048988825,-28766.628058746825
15819.693007432583,5148.858445746714,-22871.958955759877,-31027.507010401132,-34236.14463044937,-34438.20440032535,-20568.87991057395,-28765.666933735247
15811.020530583923,5193.047844534855,-22861.47598761034,-30994.292318140546,-34360.9120679989,-34391.44455092485,-20625.876858934982,-28691.280328187982
15788.802896595347,5230.621126964227,-22815.252580076765,-30941.899829137306,-34398.70886787282,-34348.283332381645,-20630.257800848223,-28683.121941461795
15792.133306519188,5187.258742720931,-22824.41679530344,-30979.60722203341,-34272.2874012336,-34403.40273420844,-20584.72729739276,-28783.905957210776
15813.613332940738,5143.337564866253,-22875.1999587059,-31037.498240172656,-34221.66070004233,-34448.79912719716,-20576.770076366673,-28801.139152185817
15814.775623652415,5182.609579874227,-22873.47887438284,-31012.173713704793,-34347.67983528136,-34402.91099583042,-20620.288922821157,-28700.95863353713
15786.947701805557,5229.436484508095,-22832.84340296309,-30965.21269860419,-34413.237501768774,-34348.66331203739,-20637.589173029563,-28674.315354146405
15784.019623281913,5204.447234207062,-22825.020292403733,-30985.97746920317,-34293.02982008813,-34386.43776016686,-20591.54457945163,-28755.273372563526
15812.786318395893,5160.548408096839,-22859.08435095362,-31037.00650179464,-34211.46830457071,-34439.85842941504,-20556.854672056994,-28794.947718971696
15812.406338740151,5176.172277471099,-22872.897729027,-31025.09302199996,-34320.2989483236,-34408.275414499694,-20592.304538763114,-28708.513523163027
15791.038071040879,5229.280022296908,-22833.558658785663,-30964.43038754826,-34411.60582442353,-34325.21633210377,-20627.79910895814,-28643.067615397886
15781.35976569173,5209.252859264953,-22824.729719725816,-30982.021210434585,-34322.1988466023,-34359.123928442474,-20595.053803331113,-28722.371604725315
15798.794126366869,5145.438628845051,-22867.1980341909,-31043.823783853506,-34215.29045287257,-34416.34439424806,-20544.851785284496,-28771.970125671643
15804.002082824956,5144.92453872258,-22897.663461883483,-31052.20568802425,-34294.54973871109,-34404.5203214312,-20591.45517247381,-28714.213217999128
15770.116838230711,5195.752405613948,-22871.891900526512,-31002.85303626693,-34422.51347571772,-34355.145317929426,-20642.640667276464,-28664.458234841615
15756.035239223867,5199.060463793334,-22833.17867912992,-30990.492521583146,-34330.960730428786,-34364.04131222264,-20596.17139055388,-28714.34732846586
15789.339338462274,5156.413335372607,-22848.914307226456,-31032.782022092586,-34199.06308639802,-34411.829341868084,-20538.660352070376,-28773.758265228065
15796.514248432428,5140.811817742803,-22893.148409503512,-31062.129862562404,-34269.69459887679,-34430.00131011025,-20586.671899160374,-28744.008093358054
15773.715469088016,5186.9905217874675,-22871.936604015424,-31017.00169050714,-34413.10339130204,-34373.116120471495,-20649.90498422444,-28671.54373783395
15761.578471848783,5204.335475484786,-22838.632504777015,-30987.586794803956,-34374.18900420535,-34355.81587026309,-20625.07219613459,-28704.221988227608
15776.040050511367,5149.864274247203,-22872.830673793636,-31041.119222774414,-34245.26414218714,-34413.1257430465,-20577.59709091152,-28787.996326446097
15801.40928046814,5135.402695584619,-22893.1037060146,-31066.39904575337,-34255.14361323638,-34427.09558333106,-20595.992576598237,-28767.030390147018
15792.490934430472,5188.376329943697,-22868.874415025046,-31019.52743763059,-34397.09954227204,-34381.60978336451,-20644.719379510807,-28685.982964752075
15771.815570809315,5220.495786725973,-22825.579086015117,-30976.99206793214,-34388.360010190016,-34346.31637886958,-20640.65136201994,-28699.326956191893
15779.728088346494,5175.680539093082,-22848.489624081805,-31022.723737087697,-34248.818069555535,-34412.56694943511,-20603.435707501856,-28788.421009590747
15806.661940415139,5145.170407911588,-22886.733458844836,-31058.240659027182,-34243.05131948606,-34441.065423615626,-20608.80012617113,-28785.068247922452
15799.978768823,5182.430765918585,-22877.658650595982,-31020.779135320085,-34379.4640158968,-34392.204510236326,-20651.17903365839,-28706.01012778403
15776.21886446701,5226.12842632871,-22836.643199520495,-30969.92891668426,-34418.132533804484,-34352.75368127271,-20658.80097851765,-28699.550473636446
15792.043899541368,5197.451138192551,-22825.512030781752,-30992.526530328578,-34266.23007848622,-34395.93725156036,-20593.735050408253,-28767.11979712484
15820.072987088322,5155.631024316672,-22871.04253423721,-31049.076443800506,-34225.57225532201,-34431.834153155585,-20576.83713160004,-28783.816550232954
15817.860164387246,5188.175164243599,-22875.75875231728,-31029.4739639132,-34355.72646328527,-34405.5708534206,-20642.439501576366,-28718.370642467817
15800.962245579034,5246.200292849576,-22819.320597567632,-30962.575192758468,-34418.758382649234,-34347.34455911453,-20656.051713949648,-28678.76335129301
15798.302387988853,5220.942821615079,-22810.156382340956,-30973.728713241664,-34302.05992484807,-34369.271620425185,-20598.98771035525,-28744.656293947257
15823.559859223351,5175.322911181797,-22852.557641572672,-31025.785926078075,-34219.2243598967,-34416.41144948143,-20570.913919319384,-28785.26941362255
15828.186670325598,5195.707702125037,-22868.740304558316,-31020.354452175434,-34331.161896128884,-34405.79437086515,-20627.575591513585,-28729.658273417746
15810.0817573168,5250.313013829353,-22817.17483009992,-30959.356541556903,-34424.16750480742,-34352.44075685034,-20657.392818616965,-28683.367810650805
15806.170202037121,5239.986507891001,-22794.688975177884,-30956.98725664464,-34320.92479716835,-34350.92083822737,-20610.476507005278,-28731.200543785162
15821.0341120999,5177.178105971588,-22843.438129834907,-31026.635292367377,-34226.086345444484,-34433.33172003409,-20597.624253943475,-28802.100277197394
15828.589001725793,5178.40745191663,-22871.735438315325,-31035.799507594053,-34310.061849363075,-34435.23161831279,-20632.358864827023,-28749.752491683066
15811.355806750753,5230.710533942049,-22835.90559195347,-30972.32055334098,-34439.81372592613,-34357.84987900852,-20664.791246031673,-28667.922755232186
15805.209077025544,5241.9311096586125,-22792.409097243442,-30946.817212917475,-34350.47380333827,-34342.04719567862,-20605.872047647485,-28693.828427055887
15826.376179024719,5192.60080964575,-22813.33033005361,-30995.923995485784,-34201.901757943844,-34403.6709551419,-20548.58452660853,-28754.848689418875
15838.379065797219,5182.564876385317,-22855.79864451869,-31024.981263277685,-34268.82288084303,-34410.68940290087,-20593.153905052415,-28733.279256019505
15811.914600362135,5224.9661356170345,-22839.23600187731,-30981.998858690127,-34411.80699012363,-34363.102538955514,-20652.65424879244,-28674.87414775779
15795.664882143126,5238.667754968137,-22805.306053794153,-30958.306009567503,-34373.384341404955,-34353.98302721775,-20628.402606058433,-28699.841046314366
15812.026359084412,5191.50557416744,-22828.28364709421,-31005.93757700176,-34243.67716833081,-34406.08494354307,-20576.479503688755,-28770.919593682243
15833.416978528141,5166.762193055415,-22862.079484710634,-31040.09104252947,-34257.5352498931,-34426.53678971968,-20587.722431149774,-28753.418177773736
15815.51323121944,5206.436539463584,-22851.10477818308,-31006.13874270186,-34401.43578069637,-34379.30755368561,-20650.821405747105,-28676.215252425107
15795.039033298379,5240.32178405783,-22812.391556786486,-30968.74427422813,-34409.01302206672,-34358.67689355337,-20646.59692604505,-28679.38920013776
15809.053577071856,5200.088644038277,-22818.203010344867,-31004.819989778996,-34261.98324703971,-34403.6709551419,-20582.469771202777,-28757.352084797873
15832.94759189458,5157.508570850918,-22864.649935322996,-31060.073502072515,-34238.02217698362,-34458.65624650195,-20585.55431193761,-28764.996381401586
15814.55210620786,5190.365635200219,-22869.81318829217,-31034.816030838017,-34389.14232124595,-34416.85848437053,-20653.078931937092,-28700.77981958149
15787.908826817134,5235.471455511029,-22819.924094667924,-30973.862823708398,-34431.700042688855,-34359.70507379831,-20666.5793855881,-28689.291022931462
15788.959358806535,5201.228583005498,-22820.95227491287,-30991.94538497274,-34300.51765448066,-34399.535882417666,-20611.25881806121,-28758.69318946519
15811.9816555955,5152.613538815205,-22866.214557434865,-31036.537115161078,-34217.68208952929,-34446.69806321836,-20572.567948409076,-28759.475500521126
15812.831021884802,5182.430765918585,-22867.846234780103,-31009.267986925603,-34350.69732078282,-34400.22878649578,-20621.495917021744,-28687.257014186027
15786.187742494076,5230.6658304531375,-22824.349740070076,-30943.68796869373,-34423.4746007293,-34335.67694850885,-20647.17807140089,-28664.614697052803
15781.046841269355,5208.403492975652,-22816.37016729953,-30957.188422344738,-34304.60802371598,-34382.66031535391,-20581.285128746644,-28736.274389776518
15802.638626413183,5150.244253902943,-22871.176644703944,-31034.10077501545,-34224.81229601053,-34430.38128976599,-20569.058724529594,-28769.042047147996
15815.915562619635,5167.0304139888785,-22896.14354326052,-31048.785871122585,-34343.544762557125,-34411.04703081215,-20644.898193466448,-28704.356098694338
15791.954492563546,5219.489958225484,-22853.675228795437,-30989.21847214919,-34440.68544395989,-34349.356216115506,-20667.696972810863,-28649.437862567647
15764.774771305893,5209.588135431783,-22831.122318640035,-30969.347771328423,-34357.581658075054,-34361.94024824384,-20630.816594459608,-28701.316261448417
15779.258701712932,5152.144152181644,-22866.035743479224,-31011.771382304596,-34240.43616538479,-34428.34728102056,-20592.528056207666,-28762.045951133485
15797.967111822023,5162.828286031281,-22881.749019831303,-31010.452629381733,-34297.321355023545,-34415.38326923648,-20603.2121900573,-28702.657366115734
15786.567722149817,5218.372371002719,-22847.528499070228,-30959.155375856804,-34415.6738419144,-34357.69341679733,-20644.831138233083,-28639.826612451867
15778.007004023435,5225.256708294954,-22812.2350945753,-30947.465413506678,-34361.359102888004,-34351.63609404994,-20612.68932970635,-28677.936336748164
15794.100260031255,5164.392908143152,-22847.595554303596,-31019.52743763059,-34238.9833019952,-34413.19279827986,-20581.396887468924,-28765.354009312872
15800.738728134482,5139.7389340089485,-22888.923929801458,-31057.30188576006,-34286.011372329165,-34444.5299440062,-20607.727242437275,-28741.348235767873
15793.742632119971,5198.546373670862,-22852.848214250593,-30996.303975141524,-34415.22680702529,-34370.23274543676,-20653.727132526295,-28660.211403395107
15774.36366967722,5217.858280880247,-22818.381824300508,-30966.374989315867,-34383.68849559886,-34357.02286446367,-20641.612487031518,-28686.809979296922
15779.437515668575,5171.6125216022165,-22836.866716965047,-31013.984205005672,-34248.37103466642,-34427.207342053334,-20587.16363753839,-28769.891413437297
15804.94085609208,5143.382268355163,-22872.540101115716,-31051.311618246036,-34248.10281373296,-34437.73501369179,-20585.73312589325,-28755.720407452634
15801.275170001409,5193.718396868515,-22854.412836362462,-31007.479847369177,-34393.23269048127,-34381.67683859788,-20645.27817312219,-28678.67394431519
15773.760172576925,5225.234356550498,-22818.068899878133,-30970.37595157337,-34407.2695859992,-34363.21429767779,-20647.446292334356,-28681.95965075012
15800.470507201018,5199.820423104814,-22813.553847498162,-30991.14072217235,-34250.67326434532,-34384.69432409934,-20576.904186833406,-28745.885639892298
15825.795033668881,5169.265588434409,-22853.697580539894,-31035.978321549694,-34217.25740638464,-34421.10531581704,-20578.491160689733,-28753.082901606907
15811.735786406492,5195.998274802956,-22859.106702698078,-31015.66058583982,-34367.19290819084,-34396.40663819393,-20648.13919641247,-28688.709877575624
15793.385004208685,5233.169225832132,-22818.493583022784,-30969.95126842872,-34421.060612328125,-34360.35327438751,-20664.880653009495,-28679.880938515777
15796.60365541025,5202.994370817468,-22821.95810341336,-30993.80057976253,-34302.84223590401,-34398.70886787282,-20618.679597220373,-28764.281125579015
15813.300408518364,5156.122762694688,-22863.822920778148,-31049.188202522782,-34237.64219732788,-34452.21894409883,-20603.435707501856,-28785.537634556014
15816.340245764286,5182.40841417413,-22865.186377189922,-31031.575027892,-34339.40968983289,-34421.26177802822,-20646.08283592258,-28706.30070046195
15793.563818164328,5236.410228778152,-22815.56550449914,-30966.866727693887,-34414.75742039173,-34362.99078023324,-20665.886481509984,-28664.033551696964
15786.768887849914,5211.532737199394,-22809.888161407493,-30978.46728306619,-34316.07446862155,-34391.89158581395,-20630.23544910377,-28737.12375606582
15819.044806843378,5167.365690155708,-22853.027028206234,-31032.75967034813,-34230.556694335544,-34440.59603698207,-20608.12957383747,-28784.330640355427
15814.641513185683,5174.182972214577,-22876.80928430668,-31036.067728527516,-34323.472896036255,-34422.893455373465,-20654.21887090431,-28728.272465261518
15788.400565195152,5225.502577483961,-22840.59945828908,-30980.4118848338,-34431.02949035519,-34367.34937040202,-20692.95444404536,-28681.780836794478
15785.450134927052,5218.79705414737,-22812.682129464403,-30972.968753930185,-34346.674006780864,-34380.69336184184,-20647.13336791198,-28732.40753798575
15810.75230965046,5169.5561611123285,-22845.13686241351,-31027.439955167767,-34233.26125541464,-34446.07221437361,-20601.82638190107,-28792.153750914786
15821.481146989006,5174.741765825959,-22867.53331035773,-31034.637216882376,-34301.00939285867,-34435.58924622408,-20636.203364873334,-28743.806927657955
15800.358748478742,5220.428731492607,-22840.018312933247,-30981.4624168232,-34434.87399040151,-34371.48444312625,-20682.896159040472,-28669.688543044158
15787.327681461298,5229.503539741461,-22802.288568292686,-30959.915335168283,-34373.94313501634,-34363.16959418888,-20645.456987077832,-28699.773991081
15802.303350246353,5177.69219609406,-22830.38471107301,-31011.123181715393,-34242.55958110805,-34432.392946766966,-20603.301597035123,-28773.26652685005
15819.290676032386,5157.262701661909,-22874.730572072338,-31043.980246064693,-34287.59834618549,-34447.45802252985,-20631.487146793264,-28749.998360872076
15805.052614814356,5205.520117940917,-22852.445882850396,-30990.738390772152,-34427.54261822017,-34377.362951918,-20670.46858912332,-28666.87222324279
15775.88358830018,5229.101208341266,-22812.45861201985,-30957.07666362246,-34392.696248614346,-34374.68074258337,-20652.251917392245,-28682.87607227279
15784.936044804579,5181.313178695819,-22825.266161592743,-31002.65187056683,-34244.548886364566,-34416.947891348354,-20593.377422496967,-28763.722331967634
15811.020530583923,5156.547445839339,-22861.677153310437,-31035.620693638408,-34252.64021785739,-34432.14707757796,-20607.101393592526,-28751.294762050482
15800.001120567456,5196.802937603347,-22855.23985090731,-30999.880254254374,-34398.19477775035,-34390.170501490895,-20661.84081576357,-28677.06461871441
15773.760172576925,5229.0788565968105,-22813.84442017608,-30961.770529958074,-34411.2705482567,-34369.29397216964,-20663.450141364356,-28682.00435423903
15782.633815125682,5200.245106249465,-22816.593684744083,-30992.727696028676,-34276.780101869124,-34412.7234116463,-20610.252989560722,-28759.31903830994
15809.0312253274,5164.303501165331,-22860.51486259876,-31042.795603608563,-34234.02121472612,-34453.00125515476,-20599.054765588615,-28764.437587790202
15805.499649703463,5201.228583005498,-22858.32439164214,-31014.3194811725,-34371.59620184853,-34411.65052791245,-20660.924394240905,-28686.742924063557
15770.318003930808,5232.945708387579,-22819.164135356445,-30973.4604923082,-34431.43182175539,-34376.602992606524,-20676.503560126253,-28674.96355473561
15778.878722057192,5208.850527864758,-22808.077670106613,-30984.681068024765,-34289.9452793533,-34411.15878953443,-20601.84873364553,-28734.374491497816
15805.767870636926,5165.286977921364,-22853.295249139697,-31036.13478376088,-34224.45466809925,-34457.20338311236,-20578.066477545082,-28758.02263713153
15805.387890981185,5181.380233929185,-22867.75682780228,-31024.310710944024,-34335.11815489747,-34426.35797576403,-20632.783547971674,-28694.700145089646
15778.0740592568,5234.286813054898,-22827.09900463808,-30967.827852705464,-34428.5260949762,-34370.50096637022,-20667.451103621854,-28659.406740594717
15769.580396363783,5215.064312823333,-22811.8327631751,-30973.326381841467,-34319.36017505648,-34391.6680683694,-20613.248123317735,-28726.104346049353
15799.665844400626,5164.6834808210715,-22846.477967080828,-31025.80827782253,-34215.312804617024,-34444.261723072734,-20588.84001837254,-28774.093541394897
15816.250838786465,5181.447289162551,-22856.200975918888,-31020.175638219793,-34291.55460495408,-34422.20055129535,-20607.682538948364,-28698.097610246852
15794.144963520166,5235.6502694666715,-22821.622827246527,-30959.065968878982,-34404.7214871313,-34356.9111057414,-20651.98369645878,-28643.157022375708
15776.844713311759,5231.671658953626,-22804.814315416137,-30958.194250845227,-34334.22408511926,-34373.33963791605,-20620.020701887694,-28699.282252702982
15800.336396734287,5176.574608871295,-22836.57614428713,-31015.32530967299,-34210.015441181116,-34430.023661854706,-20572.478541431254,-28755.318076052437
15808.852411371758,5168.125649467189,-22870.461388881373,-31031.507972658634,-34281.09398854899,-34431.05184209965,-20610.74472793874,-28713.92264532121
15782.857332570236,5216.472472724017,-22844.95804845787,-30975.606259775912,-34421.15001930595,-34372.758492560206,-20666.914661754927,-28653.28236261396
15771.793219064859,5229.0788565968105,-22804.65785320495,-30948.515945496078,-34359.481556353756,-34365.94121050134,-20638.304428852134,-28685.15595020723
15792.245065241465,5182.78839382987,-22829.982379672812,-30995.70047804123,-34229.372051879414,-34416.56791169261,-20592.41629748539,-28759.475500521126
15813.814498640837,5160.548408096839,-22871.757790059783,-31029.205742979735,-34264.39723544088,-34444.79816493966,-20618.344321053544,-28741.415291001238
15795.195495509566,5201.563859172328,-22858.592612575605,-30991.721867528187,-34417.03729832617,-34401.771056863196,-20676.727077570806,-28676.90815650322
15779.281053457387,5238.399534034674,-22805.03783286069,-30941.452794248202,-34383.397922920936,-34354.96650397379,-20651.268440636213,-28668.034513954466
15790.188704751577,5188.242219476965,-22823.120394125035,-30982.177672645772,-34241.17377295181,-34410.53294068968,-20594.539713208644,-28739.850668889365
15814.686216674592,5158.290881906853,-22865.365191145564,-31018.90158878584,-34237.68690081679,-34443.077080616604,-20597.55719871011,-28734.46389847564
15806.393719481674,5201.250934749954,-22852.602345061583,-30976.612088276397,-34372.557326860115,-34383.37557117648,-20650.642591791464,-28655.1152056593
15777.045879011856,5228.6094699632495,-22815.453745776864,-30942.257457048592,-34400.452303940336,-34358.162803430896,-20658.622164562006,-28655.025798681476
15777.716431345516,5186.968170043012,-22826.719024982336,-30979.540166800045,-34282.099817049486,-34420.12183906101,-20611.683501205862,-28739.805965400454
15804.024434569412,5154.982823727468,-22868.472083624853,-31023.930731288285,-34237.86571477243,-34455.90698193395,-20604.776812169173,-28753.26171556255
15806.12549854821,5189.113937510721,-22868.785008047227,-31000.57315833249,-34361.113233699,-34424.81570539662,-20665.238280920777,-28682.518444361503
15786.657129127638,5240.791170691392,-22820.8852196795,-30940.64813144781,-34423.96633910732,-34363.460166866804,-20679.453990394355,-28659.518499316993
15790.971015807512,5218.908812869646,-22814.93965565439,-30958.46247177869,-34307.536102239625,-34392.3162689586,-20628.17908861388,-28729.97119784012
15813.054539329356,5167.656262833627,-22857.631487564027,-31014.252425939136,-34233.1271449479,-34454.36471156654,-20613.158716339913,-28773.22182336114
15817.279019031408,5188.912771810624,-22869.276746425243,-30999.94730948774,-34344.39412884643,-34425.28509203018,-20666.80290303265,-28713.25209298755
15789.764021606927,5236.074952611322,-22833.983341930314,-30949.678236207754,-34442.38417653849,-34374.636039094454,-20706.767822118738,-28673.82361576839
15779.102239501744,5216.874804124213,-22824.305036581165,-30960.340018312934,-34350.07147193807,-34406.39786796545,-20677.799961304663,-28735.425023487216
15806.41607122613,5168.6173878452055,-22858.436150364418,-31010.18440844827,-34245.86763928743,-34460.82436571412,-20626.390949057455,-28773.490044294602
15806.013739825934,5163.7447075539485,-22881.011412264277,-31020.08623124197,-34322.1988466023,-34439.23258057029,-20644.786434744172,-28726.01493907153
15781.806800580836,5215.399588990163,-22834.85505996407,-30962.306971825,-34418.44545822686,-34377.94409727384,-20662.734885541784,-28656.590420793345
15772.150846976145,5220.719304170526,-22809.150553840467,-30951.60048623091,-34337.44273632082,-34379.106387985514,-20623.015835644703,-28689.00045025354
15798.570608922317,5172.104259980233,-22842.633467034517,-31003.590643833955,-34229.34970013496,-34446.631007985,-20591.54457945163,-28754.893392907787
15824.856260401757,5169.198533201044,-22861.498339354795,-31014.3194811725,-34279.52936643712,-34451.79426095418,-20615.37153904099,-28726.283160004994
15806.304312503853,5229.592946719283,-22828.551868027673,-30953.4556810207,-34402.262795241215,-34370.031579736664,-20648.429769090388,-28625.588551233835
15787.797068094858,5250.022441151434,-22801.461553747842,-30936.89303837932,-34375.910088528406,-34371.439739637346,-20654.509443582232,-28677.8692815148
15794.100260031255,5191.147946256155,-22831.010559917755,-30990.023134949584,-34250.852078300966,-34433.5775892231,-20611.370576783487,-28759.006113887564
15809.277094516408,5170.383175657174,-22861.453635865884,-31012.352527660434,-34259.12222374943,-34439.165525336924,-20592.461000974297,-28703.64084287177
15793.094431530766,5211.957420344045,-22850.65774329397,-30975.09216965344,-34402.79923710814,-34390.63988812445,-20658.644516306464,-28638.86548744029
15761.399657893142,5229.056504852356,-22816.303112066165,-30946.45958500619,-34400.54171091816,-34380.156919974914,-20655.559975571632,-28660.546679561936
15774.631890610683,5186.901114809646,-22821.823992946625,-30978.780207488562,-34255.8365173145,-34421.842923384065,-20587.096582305025,-28729.21123852864
15805.23142877,5160.25783541892,-22861.028952721234,-31019.5721411195,-34236.45755487175,-34449.648493486464,-20579.519340934676,-28719.26471224603
15787.394736694663,5193.226658490498,-22856.91623174146,-30989.84432099394,-34378.212318207305,-34410.376478478494,-20648.407417345934,-28654.087025414352
15761.489064870962,5226.418999006629,-22814.69378646538,-30942.03393960404,-34410.73410638978,-34366.410597134905,-20653.28009763719,-28644.47577529857
15783.282015714887,5206.593001674772,-22807.250655561766,-30957.434291533744,-34264.73251160771,-34397.47952192778,-20586.470733460275,-28709.452296430147
15805.522001447916,5160.995442985945,-22859.37492363154,-31016.19702770675,-34222.7782872651,-34449.35792080855,-20581.97803282476,-28732.40753798575
15795.821344354314,5190.611504389227,-22869.790836547716,-31003.99297523415,-34360.04034996514,-34423.54165596267,-20649.70381852434,-28672.52721458998
15761.73493405997,5230.062333352845,-22829.55769652816,-30956.093186866427,-34433.55523747864,-34382.45914965381,-20667.115827455025,-28643.224077609073
15769.043954496856,5211.800958132859,-22814.827896932115,-30964.542146270534,-34310.41947727436,-34410.152961033935,-20610.722376194284,-28707.597101640356
15804.784393880893,5170.874914035191,-22852.468234594853,-31010.67614682629,-34218.330290118494,-34447.547429507664,-20580.480465946253,-28739.761261911546
15810.975827095011,5196.311199225331,-22863.509996355773,-31000.75197228813,-34327.250340849205,-34435.14221133497,-20633.69996949434,-28674.762389035513
15784.243140726465,5247.429638794618,-22823.99211215879,-30942.12334658186,-34424.1228013185,-34371.12681521497,-20663.181920430892,-28627.309635556896
15774.49778014395,5238.578347990317,-22807.474173006318,-30944.22441056066,-34331.18424787334,-34385.498986899736,-20620.825364688084,-28687.10055197484
15801.40928046814,5189.605675888739,-22843.08050192362,-30999.12029494289,-34214.73165926119,-34440.61838872652,-20582.246253758225,-28737.459032232648
15817.010798097945,5194.9700945580125,-22863.353534144586,-31002.964794989206,-34303.2445673042,-34426.13445831948,-20616.04209137465,-28679.16568269321
15787.618254139217,5246.1555893606655,-22828.417757560943,-30949.767643185576,-34409.48240870028,-34377.13943447345,-20661.66200180793,-28618.413641263684
15773.827227810292,5246.356755060763,-22800.589835714083,-30937.429480246246,-34354.83239350705,-34385.767207833196,-20644.22764113279,-28671.923717489688
15800.202286267555,5197.182917259088,-22837.358455343063,-30994.202911162727,-34261.69267436179,-34454.00708365525,-20651.581365058588,-28779.592070530904
15819.08951033229,5177.356919927231,-22873.367115660563,-31021.09205974246,-34297.83544514602,-34469.76506349624,-20658.95744072884,-28755.899221408275
15807.108975304243,5235.292641555387,-22821.153440612965,-30949.03003561855,-34370.8138907926,-34362.18611743285,-20603.525114479675,-28598.23001602054
15780.64450986916,5253.889292942202,-22777.902815091948,-30915.63652940232,-34326.98211991574,-34337.88977120993,-20571.092733275025,-28620.04531860892
15793.69792863106,5204.357827229242,-22803.89789389347,-30967.805500961007,-34201.00768816563,-34410.48823720077,-20534.368817134957,-28722.05868030294
15821.257629544454,5182.78839382987,-22843.304019368177,-30998.449742609235,-34222.28654888708,-34432.57176072261,-20549.702113831296,-28700.980985281585
15791.350995463252,5221.926298371112,-22837.38080708752,-30963.491614281134,-34383.68849559886,-34394.8196643376,-20630.950704926337,-28661.8654324848
15767.680498085083,5247.049659138877,-22796.767687412226,-30929.4499074757,-34374.83720479455,-34366.94703900183,-20623.306408322624,-28702.232682971084
15791.239236740976,5213.5220424559175,-22798.421716501918,-30952.22633507566,-34225.751069277656,-34379.73223683026,-20547.086959730026,-28733.63688393079
15822.37521676722,5182.341358940764,-22847.37203685904,-30999.23205366517,-34220.65487154185,-34417.30551925964,-20555.44651215631,-28720.225837257607
15804.404414225151,5204.514289440428,-22851.261240394266,-30985.061047680505,-34364.66716106739,-34381.69919034233,-20614.723338451786,-28657.551545804927
15772.374364420697,5234.13035084371,-22812.07863236411,-30946.236067561636,-34406.308460987624,-34342.69539626782,-20620.355978054522,-28653.57293529188
15776.59884412275,5204.290771995875,-22813.26327482024,-30973.84047196394,-34266.699465119775,-34392.45037942533,-20571.36095420849,-28737.235514788095
15801.141059534677,5169.600864601239,-22855.66453405196,-31021.4720393982,-34218.55380756305,-34425.463905985824,-20557.25700345719,-28759.7884249435
15809.455908472051,5202.167356272621,-22854.23402240682,-30993.577062317978,-34339.767317744176,-34381.83330080906,-20603.2121900573,-28682.9207757617
15775.41420166662,5240.187673591098,-22820.8852196795,-30951.622837975367,-34414.846827369554,-34336.615721775976,-20629.207268858823,-28657.931525460666
15759.857387525724,5211.219812777021,-22806.982434628302,-30973.88517545285,-34303.624546959945,-34373.83137629407,-20584.21320727029,-28734.329788008905
15790.948664063057,5168.97501575649,-22845.360379858063,-31029.76453659112,-34223.94057797678,-34428.280225787195,-20556.4523406568,-28772.148939627285
15803.778565380404,5185.738824097971,-22866.080446968135,-31025.987091778174,-34336.79453573162,-34414.01981282471,-20608.062518604103,-28711.307491219937
15785.047803526855,5238.086609612299,-22822.069862135635,-30968.610163761397,-34424.25691178524,-34357.06756795258,-20631.151870626436,-28655.04815042593
15780.756268591436,5229.592946719283,-22798.153495568455,-30967.22435560517,-34332.19007637383,-34373.22787919377,-20583.92263459237,-28705.138409750274
15799.419975211618,5171.88074253568,-22837.067882665146,-31027.08232725648,-34218.91143547433,-34424.636891440976,-20550.842052798518,-28763.610573245358
15812.495745717973,5178.966245528012,-22861.05130446569,-31034.05607152654,-34292.13575030991,-34415.830304125586,-20585.442553215333,-28710.234607486083
15789.808725095836,5232.766894431937,-22832.84340296309,-30979.964849944696,-34410.19766452285,-34352.82073650607,-20624.446347289842,-28644.14049913174
15767.16640796261,5227.313068784842,-22804.344928782575,-30967.760797472096,-34353.826565006566,-34359.99564647623,-20595.947873109326,-28688.374601408792
15784.98074829349,5166.851600033236,-22839.101891410577,-31023.81897256601,-34227.78507802309,-34420.61357743902,-20555.938250534327,-28762.69415172269
15808.22656252701,5157.910902251113,-22867.399199890995,-31041.09687102996,-34274.120244278936,-34417.5737401931,-20578.513512434187,-28722.90804659224
15796.447193199063,5217.835929135791,-22838.140766399,-30985.686896525254,-34398.57475740609,-34347.18809690334,-20620.31127456561,-28640.96655141909
15766.629966095683,5229.570594974827,-22804.210818315845,-30964.6092015039,-34370.83624253705,-34342.98596894574,-20607.213152314802,-28673.331877390374
15774.810704566326,5175.054690248334,-22828.417757560943,-31019.90741728633,-34241.889028774385,-34408.208359266326,-20568.87991057395,-28759.095520865387
15806.617236926228,5161.710698808515,-22868.539138858217,-31052.13863279088,-34259.05516851606,-34420.77003965021,-20586.090753804536,-28740.78944215649
15793.675576886604,5201.988542316979,-22857.989115475313,-31017.22520795169,-34405.28028074268,-34373.85372803852,-20654.62120230451,-28670.873185500288
15767.009945751422,5229.637650208193,-22818.42652778942,-30981.775341245575,-34405.548501676145,-34363.77309128918,-20663.114865197524,-28696.845912557354
15770.675631842094,5183.414242674618,-22837.358455343063,-31022.030833009583,-34269.00169479867,-34423.787525151674,-20610.387100027456,-28793.941890471207
15791.328643718798,5138.01784968589,-22884.095952999112,-31068.790682410086,-34243.18542995279,-34440.081946859595,-20605.961454625303,-28806.12359119935
15776.732954589483,5168.751498311937,-22875.24466219481,-31047.42241471081,-34398.93238531738,-34402.03927779666,-20672.435542635387,-28726.64078791628
15755.811721779315,5214.8184436343245,-22832.061091907155,-30993.711172784708,-34424.636891440976,-34358.431024364356,-20659.35977212903,-28691.50384563254
15761.422009637596,5182.45311766304,-22823.723891225327,-31018.320443430002,-34286.48075896272,-34387.48829215626,-20597.93717836585,-28764.772863957034
15771.815570809315,5120.851709944214,-22883.023069265255,-31083.721647706232,-34251.679092845814,-34441.624217227014,-20598.183047554856,-28807.285881911026
15777.850541812248,5156.480390605973,-22891.472028669363,-31053.703254902754,-34355.637056307445,-34393.27739397018,-20633.3199898386,-28718.795325612467
15778.297576701354,5235.1808828331095,-22802.22151305932,-30975.51685279809,-34411.89639710145,-34327.49621003821,-20644.205289388334,-28667.699237787634
15775.92829178909,5208.671713909115,-22789.056335575144,-30997.823893764486,-34313.92870115384,-34370.098634970025,-20609.89536164944,-28748.053759104463
15788.914655317623,5138.73310550846,-22851.484757838818,-31061.883993373394,-34244.03479624209,-34436.61742646902,-20591.4104689849,-28806.302405154995
15786.970053550012,5147.651451546127,-22870.595499348106,-31054.507917703144,-34338.87324796597,-34415.58443493658,-20621.22769608828,-28736.69907292117
15756.839902024258,5196.333550969786,-22832.84340296309,-31002.942443244752,-34433.66699620092,-34368.46695762479,-20652.38602785898,-28684.016011240008
15743.630021051173,5185.403547931141,-22818.247713833778,-31006.026983979584,-34354.38535861795,-34379.531071130164,-20621.920600166395,-28749.998360872076
15769.915672530613,5133.771018239381,-22852.356475872573,-31058.441824727277,-34239.31857816203,-34427.18499030888,-20583.29678574762,-28807.867027266864
15785.740707604971,5138.6213467861835,-22879.133865730033,-31065.437920741788,-34316.29798606611,-34418.89249311596,-20619.171335598392,-28756.8379946754
15753.107160700221,5182.497821151951,-22855.86569975206,-31016.532303873577,-34448.64266498598,-34374.2113559498,-20667.093475710568,-28692.800246810944
15732.342390101241,5185.805879331337,-22830.138841884,-31007.099867713438,-34392.5174346587,-34382.056818253615,-20644.898193466448,-28739.671854933724
15766.607614351227,5149.797219013836,-22843.23696413481,-31044.986074565182,-34259.435148171804,-34428.682557187385,-20582.69328864733,-28796.020602705554
15799.509382189439,5154.111105693711,-22867.53331035773,-31057.77127239362,-34293.36509625496,-34425.553312963646,-20598.518323721688,-28750.981837628107
15780.756268591436,5201.161527772132,-22843.48283332382,-31012.799562549542,-34415.00328958074,-34367.14820470193,-20642.99829518775,-28673.689505301656
15755.141169445655,5213.0526558223555,-22817.308940566654,-30991.028963450073,-34396.9207283164,-34357.98398947525,-20635.666923006407,-28702.120924248808
15766.339393417764,5161.218960430499,-22838.051359421177,-31035.196010493757,-34266.565354653045,-34424.23456004078,-20589.06353581709,-28785.515282811557
15782.052669769844,5126.193776869032,-22882.017240764766,-31074.557432479556,-34264.21842148524,-34456.1304993785,-20588.750611394717,-28766.829224446923
15765.244157939454,5162.78358254237,-22874.127074972042,-31037.498240172656,-34412.36578373501,-34401.86046384102,-20649.815577246616,-28690.989755510065
15742.803006506325,5194.388949202174,-22828.52951628322,-30993.957041973717,-34427.11793507552,-34365.494175612235,-20654.129463926492,-28690.967403765608
15758.493931113951,5163.521190109395,-22832.61988551854,-31022.00848126513,-34286.50311070718,-34408.76715287771,-20598.49597197723,-28761.867137177844
15788.55702740634,5132.094637405234,-22869.947298758903,-31060.073502072515,-34253.847212057975,-34439.612560226036,-20576.278337988657,-28761.375398799828
15775.816533066814,5162.202437186532,-22870.215519692367,-31032.580856392487,-34372.64673383793,-34394.99847829324,-20625.139251367957,-28690.45331364314
15741.506605327917,5189.628027633194,-22838.207821632364,-30993.97939371817,-34430.87302814401,-34369.42808263637,-20655.89525173846,-28689.223967698097
15749.68734379856,5166.315158166309,-22833.201030874377,-31016.4205451513,-34318.577864000545,-34424.30161527415,-20613.65045471793,-28776.8428059629
15779.370460435208,5128.674820503571,-22870.461388881373,-31061.973400351217,-34250.04741550057,-34458.38802556849,-20579.65345140141,-28777.669820507745
15774.810704566326,5143.203454399521,-22879.938528530423,-31049.34466473397,-34366.835280279556,-34408.36482147752,-20627.217963602303,-28689.38042990928
15746.602803063728,5194.746577113459,-22841.761749000758,-30992.57123381749,-34448.37444405251,-34369.539841358644,-20657.884556994984,-28664.748807519532
15741.64071579465,5175.099393737244,-22828.66362674995,-31001.22135892169,-34343.76828000168,-34394.149112003935,-20620.69125422135,-28735.156802553753
15770.183893464076,5126.0596664023005,-22859.553737587183,-31053.345626991468,-34244.481831131205,-34448.77677545271,-20588.772963139174,-28775.725218740135
15784.354899448741,5141.974108454479,-22871.71308657087,-31044.58374316499,-34335.60989327549,-34415.65149016994,-20620.959475154814,-28705.406630683738
15763.903053272135,5196.132385269688,-22833.111623896555,-30981.90945171231,-34442.115955605026,-34350.809079505096,-20650.530833069188,-28649.437862567647
15735.136358158155,5172.908922780624,-22825.84730694858,-30990.380762860867,-34372.199698948825,-34381.25215545323,-20636.51628929571,-28721.008148313544
15772.754344076437,5135.5144543068955,-22847.37203685904,-31030.36803369141,-34247.09698523247,-34433.443478756366,-20586.381326482457,-28776.865157707354
15799.531733933894,5144.768076511393,-22867.890938269014,-31032.17852499229,-34310.30771855208,-34427.96730136482,-20601.736974923253,-28724.807944870943
15763.813646294315,5185.068271764311,-22846.85794673657,-30990.425466349778,-34438.29380730317,-34385.99072527775,-20653.727132526295,-28659.987885950555
15740.612535549706,5188.197515988054,-22816.906609166457,-30971.739407985144,-34381.922707786885,-34364.55540234511,-20626.65916999092,-28693.470799144605
15773.246082454454,5149.327832380275,-22834.005693674768,-31010.832609037476,-34252.729624835214,-34415.78560063668,-20571.539768164133,-28751.160651583752
15791.239236740976,5142.711716021504,-22870.751961559294,-31038.280551228592,-34289.7441136532,-34429.733089176785,-20587.901245105415,-28725.76906988252
15770.40741090863,5186.431728176085,-22852.535289828218,-30995.208739663216,-34427.989653109275,-34374.56898386109,-20644.56291729962,-28665.10643543082
15756.817550279804,5210.146929043166,-22813.732661453803,-30960.250611335116,-34392.58448989207,-34353.49128883974,-20623.932257167373,-28659.38438885026
15776.755306333936,5168.080945978278,-22826.04847264868,-30998.650908309333,-34258.27285746013,-34396.69721087184,-20573.21614899828,-28734.82152638692
15789.875780329203,5130.597070526728,-22870.170816203456,-31045.164888520827,-34275.48370069071,-34431.29771128866,-20591.298710262625,-28743.605761957857
15781.426820925097,5178.720376339004,-22857.743246286303,-31011.95019626024,-34409.43770521137,-34390.304611957625,-20661.103208196546,-28679.232737926573
15763.478370127485,5222.6192024492275,-22808.74822244027,-30966.26323059359,-34417.84196112656,-34349.84795449352,-20648.56387955712,-28673.39893262374
15766.920538773602,5177.64749260515,-22816.638388232994,-31013.648928838844,-34274.25435474567,-34401.078152785085,-20579.631099656952,-28742.44347124618
15802.504515946452,5146.064477689801,-22855.03868520721,-31060.118205561426,-34241.01731074063,-34436.460964257836,-20573.707887376295,-28747.40555851526
15799.062347300334,5181.290826951365,-22857.251507908288,-31032.334987203478,-34389.1646729904,-34394.99847829324,-20640.4725480643,-28679.120979204297
15769.26747194141,5227.6706966961265,-22812.570370742127,-30974.153396386315,-34434.29284504567,-34360.48738485425,-20659.918565740416,-28663.698275530136
15770.318003930808,5202.390873717174,-22804.344928782575,-30983.7646465021,-34294.5944422,-34391.73512360277,-20584.704945648307,-28734.039215330988
15804.091489802777,5159.855504018725,-22843.415778090453,-31028.602245879443,-34221.23601689768,-34437.04210961367,-20551.847881299007,-28759.251983076574
15805.052614814356,5178.876838550191,-22860.827787021135,-31018.812181808018,-34344.103556168506,-34410.2200162673,-20618.724300709284,-28696.935319535176
15777.001175522946,5229.011801363445,-22823.500373780775,-30960.295314824023,-34429.33075777659,-34361.224992421274,-20652.81071100363,-28659.04911268343
15778.677556357094,5220.138158814688,-22811.497487008273,-30953.36627404288,-34336.5039630537,-34371.439739637346,-20606.006158114214,-28704.713726605623
15810.238219527988,5171.701928580038,-22843.304019368177,-31000.506103099124,-34232.456592614246,-34422.8264001401,-20576.524207177667,-28748.523145738025
15819.067158587834,5180.843792062258,-22861.677153310437,-31000.640213565854,-34320.969500657266,-34410.13060928948,-20617.338492553055,-28693.046115999954
15796.156620521144,5232.297507798375,-22825.42262380393,-30942.011587859583,-34436.12568809101,-34347.81394574809,-20658.890385495473,-28637.300865328416
15785.27132097141,5231.962231631545,-22799.22637930231,-30928.46643071967,-34365.784748290156,-34361.7614342882,-20624.89338217895,-28684.641860084757
15814.708568419048,5191.080891022789,-22828.618923261038,-30979.249594122124,-34247.36520616594,-34414.53390294718,-20592.259835274202,-28747.092634092885
15838.110844863755,5194.9700945580125,-22847.260278136764,-30987.139759914848,-34291.1969770428,-34406.28610924317,-20612.68932970635,-28697.650575357748
15808.360672993742,5240.724115458026,-22817.264237077743,-30933.495573222113,-34409.28124300018,-34345.355253858004,-20634.147004383445,-28625.76736518948
15783.863161070725,5243.406324792662,-22788.60930068604,-30922.587921927923,-34359.30274239811,-34344.21531489078,-20605.17914356937,-28662.67009528519
15803.108013046744,5193.852507335247,-22815.476097521318,-30976.969716187683,-34238.24569442817,-34414.355088991535,-20564.49896866071,-28736.274389776518
15829.37131278173,5178.1839344720765,-22851.775330516735,-31010.67614682629,-34273.270877989635,-34432.66116770043,-20597.06546033209,-28719.845857601867
15816.22848704201,5232.0739903538215,-22824.014463903244,-30961.256439835604,-34394.68555387086,-34366.94703900183,-20639.734940497274,-28641.458289797105
15792.043899541368,5255.990356921,-22785.390649484474,-30927.997044086107,-34383.107350243015,-34339.81202123308,-20634.772853228194,-28662.96066796311
15808.003045082456,5212.963248844534,-22797.03590834569,-30967.64903874982,-34235.96581649373,-34399.960565562316,-20573.484369931743,-28741.728215423613
15831.092397104789,5178.742728083459,-22833.46925180784,-31013.13483871637,-34221.57129306451,-34441.08777536008,-20561.906166303896,-28736.721424665622
15816.899039375669,5217.657115180149,-22822.09221388009,-30972.141739385337,-34357.7604720307,-34379.195794963336,-20615.84092567455,-28651.67303701318
15795.016681553923,5258.583159277816,-22775.51117843523,-30916.396488713803,-34379.91105078591,-34334.939340941826,-20620.37832979898,-28642.7099874866
15798.50355368895,5217.813577391336,-22788.85516987505,-30951.064044363982,-34262.83261332901,-34381.207451964314,-20581.93332933585,-28727.378395483305
15824.677446446116,5176.127573982189,-22833.692769252393,-31006.18344619077,-34226.220455911214,-34429.5766269656,-20582.290957247133,-28750.534802739003
15822.79989991187,5209.9457633430675,-22835.682074508917,-30981.350658100924,-34344.55059105761,-34391.80217883613,-20632.068292149102,-28671.834310511866
15795.55312342085,5249.217778351042,-22801.707422936848,-30933.942608111218,-34410.935272089875,-34341.3542916005,-20652.967173214816,-28656.009275437507
15802.705681646548,5228.385952518696,-22789.481018719795,-30945.02907336105,-34284.71497115075,-34375.977143761775,-20599.74766966673,-28723.131564036797
15831.584135482806,5184.710643853026,-22830.60822851756,-30998.89677749834,-34208.76374349162,-34429.666033943424,-20581.93332933585,-28754.60282022987
15836.03213262941,5200.870955094213,-22845.405083346974,-30993.17473091778,-34323.91993092536,-34405.01205980922,-20635.041074161658,-28691.079162487888
15806.79605088187,5243.8086561928585,-22816.928960910915,-30946.727805939652,-34431.32006303311,-34370.031579736664,-20678.403458404955,-28659.80907199491
15802.772736879915,5231.828121164814,-22791.157399553944,-30941.273980292557,-34320.56716925707,-34363.21429767779,-20623.954608911827,-28714.414383699226
15828.589001725793,5188.510440410429,-22822.09221388009,-30989.486693082657,-34221.884217486884,-34416.590263437065,-20581.329832235555,-28759.02846563202
15832.74642619448,5192.891382323669,-22844.15338565748,-30999.544978087542,-34311.40295403039,-34414.10921980253,-20632.716492738306,-28704.311395205426
15807.89128636018,5243.920414915135,-22811.22926607481,-30950.281733308046,-34421.32883326159,-34363.01313197769,-20682.225606706812,-28656.076330670876
15800.358748478742,5247.764914961447,-22780.65207965995,-30936.93774186823,-34343.120079412474,-34367.61759133549,-20643.266516121213,-28710.547531908458
15820.207097555054,5195.685350380582,-22808.032966617702,-30994.359373373914,-34213.211740638224,-34428.123763576004,-20576.72537287776,-28757.352084797873
15834.445158773085,5192.042016034367,-22841.00178968928,-31011.391402648856,-34286.212538029264,-34435.65630145744,-20613.337530295557,-28715.9790058111
15813.523925962918,5242.0875718698,-22817.197181844378,-30959.13302411235,-34414.846827369554,-34380.33573393056,-20669.23924317828,-28654.198784136628
15795.709585632037,5253.352851075274,-22783.177826783398,-30932.78031739954,-34371.23857393725,-34361.53791684365,-20646.351056856045,-28683.367810650805
15817.301370775864,5204.290771995875,-22803.339100282086,-30977.483806310156,-34234.11062170394,-34410.89056860096,-20585.666070659885,-28739.291875277984
15846.0904176343,5186.8117078318255,-22835.90559195347,-31002.316594400003,-34253.131956235404,-34429.48721998778,-20595.70200392032,-28716.090764533375
15823.202231312065,5238.265423567942,-22814.962007398844,-30955.668503721776,-34390.28226021317,-34380.179271719375,-20650.95551621384,-28641.994731664032
15793.809687353336,5266.316862859352,-22774.46064644583,-30914.943625324206,-34390.25990846872,-34353.49128883974,-20646.529870811686,-28653.260010869508
15807.55601019335,5219.713475670037,-22790.598605942563,-30956.56257349999,-34252.41670041284,-34406.4202197099,-20585.26373925969,-28731.200543785162
15837.194423341087,5189.270399721909,-22833.737472741304,-31004.46236186771,-34237.46338337223,-34439.746670692766,-20584.682593903854,-28719.354119223848
15829.617181970738,5228.453007752062,-22827.434280804908,-30970.241841106636,-34374.03254199416,-34384.60491712152,-20643.490033565766,-28649.840193967844
15791.149829763155,5256.146819132187,-22791.537379209683,-30929.427555731247,-34419.42893498289,-34359.816832520584,-20663.383086130987,-28662.133653418263
15791.418050696619,5217.36654250223,-22797.684108934893,-30961.12232936887,-34297.90250037939,-34404.788542364666,-20617.070271619592,-28747.22674455962
15825.213888313043,5178.519210638906,-22836.71025475386,-31011.212588693215,-34230.40023212436,-34449.76025220874,-20582.402715969412,-28748.299628293473
15830.243030815487,5211.286868010387,-22833.71512099685,-30981.060085423003,-34336.1016316535,-34397.88185332798,-20624.08871937856,-28667.788644765456
15800.403451967652,5257.107944143766,-22792.833780388093,-30930.567494698465,-34403.313327230615,-34343.254189879204,-20645.769911500207,-28636.473850783572
15795.955454821045,5229.168263574632,-22785.524759951208,-30952.338093797935,-34292.31456426556,-34387.62240262299,-20601.64756794543,-28710.525180164004
15817.234315542499,5176.59696061575,-22829.89297269499,-31009.04446948105,-34216.0727639285,-34439.83607767059,-20572.79146585363,-28750.758320183555
15825.169184824132,5193.226658490498,-22845.047455435688,-31002.361297888914,-34324.590483259024,-34413.41631572441,-20622.702911222328,-28686.58646185237
15805.589056681283,5247.027307394423,-22801.03687060319,-30939.865820391875,-34416.41144948143,-34366.388245390444,-20654.21887090431,-28638.19493510663
15800.246989756464,5237.147836345177,-22786.59764368506,-30936.244837790113,-34324.99281465922,-34375.8653850395,-20608.621312215488,-28696.264767201515
15820.698835933072,5181.559047884828,-22822.38278655801,-30993.062972195505,-34210.26131037013,-34437.13151659149,-20578.848788601015,-28753.73110219611
15819.760062665948,5175.479373392985,-22854.23402240682,-31008.508027614123,-34300.42824750284,-34432.23648455578,-20629.766062470208,-28710.502828419547
15809.075928816312,5243.719249215037,-22803.60732121555,-30937.87651513535,-34401.704001629834,-34359.2580389092,-20653.145987170457,-28636.85383043931
15795.486068187485,5247.541397516894,-22780.048582559655,-30928.242913275113,-34337.57684678755,-34374.74779781673,-20619.216039087303,-28676.23760416956
15807.51130670444,5190.544449155861,-22817.577161500118,-30990.626632049876,-34221.481886086694,-34439.2772840592,-20586.917768349384,-28755.295724307984
15830.913583149146,5180.374405428696,-22853.585821817618,-31012.598396849444,-34274.41081695686,-34440.43957477088,-20618.41137628691,-28722.97510182561
15813.188649796088,5231.4257897646185,-22832.17285062943,-30961.99404740263,-34411.225844767796,-34386.97420203379,-20674.246033936266,-28653.930563203165
15793.630873397695,5255.744487731992,-22788.85516987505,-30926.343014996415,-34371.6632570819,-34371.082111726064,-20652.85541449254,-28676.66228731421
15813.456870729551,5213.902022111657,-22803.85319040456,-30967.112596882893,-34229.59556932397,-34418.24429252676,-20583.207378769803,-28739.805965400454
15831.673542460627,5185.783527586881,-22848.0425891927,-31001.444876366244,-34257.24467721518,-34453.60475225506,-20609.47067850479,-28728.49598270607
15822.531678978406,5237.125484600721,-22826.294341837685,-30951.488727508633,-34389.83522532407,-34406.55433017663,-20663.919527997914,-28648.52144104498
15802.102184546255,5269.535514060916,-22783.200178527855,-30908.97570955464,-34396.69721087184,-34367.55053610212,-20650.12850166899,-28652.835327724857
15817.904867876157,5233.75037118797,-22786.41882972942,-30932.534448210532,-34247.54402012158,-34374.61368735,-20576.993593811225,-28721.812811113934
15844.123464122233,5197.0264550479005,-22830.250600606276,-30975.718018498188,-34221.7277552757,-34420.47946697229,-20583.29678574762,-28721.946921580664
15836.389760540696,5228.65417345216,-22831.23407736231,-30949.946457141217,-34365.71769305679,-34383.442626409844,-20641.791300987163,-28646.509784044003
15805.901981103658,5268.552037304883,-22784.07189656161,-30905.555892652977,-34389.14232124595,-34345.93639921384,-20627.37442581349,-28627.913132657188
15799.285864744887,5220.406379748151,-22794.286643777687,-30947.577172228954,-34267.749997109175,-34403.51449293071,-20582.402715969412,-28711.508656920036
15822.777548167414,5170.941969268557,-22841.270010622742,-31003.45653336722,-34231.92015074732,-34446.54160100718,-20594.807934142107,-28749.43956726069
15814.976789352511,5198.41226320413,-22841.42647283393,-30983.116445912892,-34338.35915784349,-34412.544597690656,-20649.36854235751,-28680.43973212716
15794.390832709174,5250.603586507272,-22795.136010066988,-30926.16420104077,-34404.117990031,-34363.102538955514,-20679.655156094454,-28652.075368413374
15793.027376297401,5225.815501906336,-22792.789076899182,-30941.005759359094,-34302.81988415955,-34378.972277518784,-20643.31121961012,-28721.835162858388
15820.855298144257,5182.274303707398,-22826.51785928224,-30994.269966396092,-34213.25644412714,-34433.13055433399,-20607.50372499272,-28765.666933735247
15818.508364976451,5192.1537747566435,-22846.142690914,-30997.354507130924,-34318.55551225609,-34425.08392633008,-20647.17807140089,-28706.904197562242
15792.110954774733,5242.624013736727,-22803.786135171194,-30940.98340761464,-34416.07617331459,-34376.245364695234,-20674.402496147453,-28655.875164970777
15786.165390749622,5232.297507798375,-22778.93099533689,-30934.479049978145,-34319.96367215677,-34380.246326952736,-20622.859373433515,-28704.043174271963
15812.831021884802,5182.006082773934,-22821.779289457714,-30992.928861728775,-34213.94934820525,-34431.543580477664,-20598.339509766043,-28760.637791232803
15829.125443592722,5188.152812499144,-22847.841423492602,-31002.718925800196,-34293.56626195506,-34425.687423430376,-20643.08770216557,-28723.31037799244
15809.858239872246,5247.340231816796,-22807.720042195328,-30938.54706746901,-34403.76036211972,-34366.27648666817,-20665.79707453216,-28645.347493332327
15787.908826817134,5249.821275451336,-22780.540320937675,-30928.84641037541,-34341.711919511785,-34364.39894013393,-20628.17908861388,-28688.95574676463
15808.383024738197,5198.032283548389,-22807.675338706416,-30982.26707962359,-34220.76663026412,-34425.419202496916,-20572.41148619789,-28764.236422090107
15820.028283599411,5182.095489751755,-22847.215574647853,-31010.85496078193,-34277.00361931368,-34432.30353978915,-20605.872047647485,-28740.007131100552
15800.962245579034,5230.978754875512,-22822.069862135635,-30963.625724747864,-34401.41342895191,-34376.871213539984,-20649.010914446226,-28662.357170862815
15796.60365541025,5255.029231909422,-22777.768704625214,-30930.03105283154,-34369.98687624775,-34355.74881502972,-20630.347207826046,-28682.518444361503
15813.993312596478,5213.74555990047,-22797.058260090147,-30973.393437074836,-34238.44686012827,-34405.23557725377,-20579.854617101504,-28760.704846466168
15833.215812828043,5194.187783502077,-22831.547001784686,-31008.016289236104,-34242.5819328525,-34430.89537988846,-20573.68553563184,-28741.325884023416
15814.261533529942,5227.335420529297,-22825.936713926403,-30974.980410931163,-34381.18510021986,-34382.66031535391,-20628.17908861388,-28666.604002309323
15797.944760077567,5260.751278489981,-22793.057297832645,-30936.44600349021,-34407.42604821039,-34354.96650397379,-20645.65815277793,-28678.740999548558
15817.726053920514,5230.531719986406,-22786.284719262687,-30964.475091037166,-34247.32050267702,-34399.82645509559,-20560.140378491924,-28749.21604981614
15837.46264427455,5195.21596374702,-22824.908533681457,-31009.98324274817,-34211.624766781904,-34431.85650490004,-20537.475709614242,-28740.655331689755
15824.56568772384,5224.809673405847,-22823.589780758593,-30985.79865524753,-34348.015111448185,-34386.124835744486,-20589.73408815075,-28665.39700810874
15800.917542090125,5264.104040158277,-22787.961100096836,-30946.146660583814,-34407.4707516993,-34353.78186151765,-20612.063480861605,-28657.059807426907
15804.113841547232,5229.212967063542,-22788.341079752576,-30977.93084119926,-34285.18435778432,-34384.5155101437,-20567.203529739803,-28736.229686287606
15831.651190716171,5183.324835696797,-22829.71415873935,-31040.85100184095,-34216.653909284345,-34440.17135383742,-20545.835262040528,-28767.052741891475
15836.456815774061,5212.404455233152,-22834.743301241793,-31023.43899291027,-34333.64293976342,-34404.87794934249,-20597.914826621392,-28696.532988134983
15798.056518799845,5243.585138748305,-22805.0825363496,-30977.37204758788,-34415.94206284786,-34356.84405050803,-20630.906001437426,-28665.128787175276
15796.69306238807,5229.0788565968105,-22789.346908253065,-30980.143663900337,-34311.581767986034,-34382.28033569817,-20590.49404746223,-28735.983817098597
15820.028283599411,5181.201419973543,-22832.955161685368,-31033.4749261707,-34225.41579311083,-34443.45706027235,-20559.82745406955,-28780.195567631195
15825.169184824132,5189.739786355471,-22855.66453405196,-31029.31750170201,-34328.233817605236,-34426.58149320859,-20608.911884893405,-28725.21027627114
15806.952513093058,5242.556958503361,-22815.207876587854,-30965.011532904096,-34422.2229030398,-34358.31926564208,-20646.395760344956,-28666.492243587047
15793.854390842247,5237.080781111811,-22790.308033264642,-30957.814271189487,-34336.32514909806,-34364.68951281184,-20609.135402337957,-28714.861418588334
15814.328588763308,5186.0741002648,-22825.936713926403,-31014.498295128145,-34227.33804313398,-34430.31423453263,-20576.233634499746,-28777.133378640818
15826.51028949145,5179.100355994744,-22856.580955574627,-31030.971530791707,-34301.85875914797,-34434.40460376794,-20612.577570984075,-28732.11696530783
15798.74942287796,5220.831062892802,-22823.209801102854,-30980.03190517806,-34421.46294372832,-34372.66908558239,-20659.337420384578,-28667.922755232186
15799.084699044788,5242.601661992271,-22775.84645460206,-30948.806518174,-34348.41744284838,-34359.74977728722,-20612.21994307279,-28692.30850843293
15828.477243003517,5197.0264550479005,-22805.12723983851,-31001.109600199416,-34223.94057797678,-34421.7758681507,-20569.12577976296,-28767.522128525037
15837.216775085542,5173.333605925275,-22848.266106637253,-31038.705234373243,-34268.174680253825,-34438.58437998109,-20596.439611487345,-28744.991570114085
15797.162449021633,5212.337399999786,-22835.14563264199,-31002.294242655546,-34416.63496692598,-34389.99168753525,-20661.86316750803,-28679.568014093402
15793.094431530766,5247.183769605609,-22782.149646538455,-30956.294352566525,-34375.37364666148,-34362.36493138849,-20633.923486938893,-28690.900348532243
15809.83588812779,5198.881649837691,-22804.32257703812,-31002.89773975584,-34244.280665431106,-34430.44834499936,-20591.812800385094,-28773.8923756948
15824.31981853483,5171.1207832242,-22849.383693860018,-31042.460327441735,-34253.19901146877,-34457.493955790276,-20606.274379047678,-28765.666933735247
15822.0846440893,5221.836891393291,-22823.902705180968,-30992.19125416175,-34381.87800429798,-34394.506739915225,-20650.240260391267,-28673.8683192573
15792.133306519188,5251.743525474492,-22778.573367425608,-30949.03003561855,-34391.37749569148,-34359.682722053854,-20630.526021781687,-28666.291077886952
15807.243085770975,5230.039981608389,-22779.489788948275,-30977.215585376693,-34252.12612773492,-34413.50572270223,-20574.333736221044,-28744.74570092508
15840.971868154034,5195.9088678251355,-22819.141783611987,-31017.89576028535,-34219.47022908572,-34438.80789742564,-20573.238500742737,-28756.234497575108
15835.898022162679,5225.569632717327,-22823.74624296978,-30985.306916869515,-34364.26482966719,-34380.64865835293,-20631.308332837623,-28669.509729088513
15811.80284163986,5273.0447379403995,-22780.78619012668,-30931.707433665688,-34411.44936221235,-34333.08414615204,-20654.62120230451,-28655.428130081673
15822.88930688969,5256.66090925466,-22769.0738760321,-30942.436271004233,-34271.90742157787,-34373.876079782975,-20589.5105707062,-28724.53972393748
15843.072932132833,5201.988542316979,-22819.253542334267,-31004.976451990184,-34202.05822015503,-34432.41529851143,-20562.911994804384,-28759.967238899142
15846.872728690236,5228.430656007607,-22823.99211215879,-30990.201948905225,-34316.87913142194,-34400.00526905123,-20612.912847150907,-28692.420267155205
15820.520021977429,5282.52187758945,-22779.042754059166,-30934.16612555577,-34392.7186003588,-34339.6555590219,-20639.153795141436,-28651.494223057536
15815.26736203043,5261.578293034827,-22772.78426561168,-30950.728768197154,-34302.23873880372,-34371.75266405972,-20608.666015704395,-28724.942055337677
15839.206080342065,5201.161527772132,-22818.694748722883,-31010.966719504206,-34210.32836560349,-34443.74763295027,-20575.205454254803,-28775.88168095132
15841.977696654523,5204.7154551405265,-22842.61111529006,-31016.532303873577,-34307.15612258388,-34433.95756887884,-20621.004178643725,-28721.097555291362
15818.016626598434,5253.844589453291,-22806.155420083454,-30959.669465979277,-34423.96633910732,-34364.06366396709,-20675.05069673666,-28675.567051835904
15807.980693338,5256.929130188123,-22776.13702727998,-30944.850259405408,-34335.20756187529,-34370.36685590349,-20625.988617657258,-28717.275406989505
15834.668676217638,5218.975868103012,-22801.394498514474,-30987.385629103857,-34205.70155450125,-34423.69811817385,-20565.68361111684,-28760.235459832606
15840.770702453936,5208.6493621646605,-22835.07857740862,-31004.95410024573,-34274.321409979035,-34426.20151355285,-20604.597998213532,-28717.677738389702
15829.013684870444,5261.846513968291,-22799.65106244696,-30944.246762305112,-34399.58058590658,-34355.637056307445,-20651.491958080765,-28646.62154276628
15821.65996094465,5279.191467665609,-22758.680314860383,-30910.83090434443,-34341.711919511785,-34339.834372977544,-20618.07610012008,-28668.146272676742
15836.546222751884,5222.216871049031,-22788.810466386138,-30966.307934082502,-34210.28366211458,-34405.70496388733,-20568.008192540194,-28739.15776481125
15842.916469921645,5200.625085905205,-22835.70442625337,-31002.875388011384,-34254.80833706955,-34432.01296711123,-20596.014928342694,-28722.840991358877
15821.0341120999,5249.664813240149,-22814.26910332073,-30953.187460087236,-34390.34931544654,-34373.1608239604,-20648.2733068792,-28650.175470134673
15803.152716535655,5278.811488009869,-22768.537434165173,-30915.792991613507,-34372.87025128249,-34355.23472490725,-20629.60960025902,-28660.993714451044
15826.912620891646,5239.718286957537,-22778.1263325365,-30954.595619987922,-34228.477982101205,-34409.258891255726,-20571.092733275025,-28734.039215330988
15857.020420672945,5205.855394107747,-22820.929923168413,-30997.89094899785,-34231.85309551395,-34443.56881899462,-20582.894454347428,-28734.553305453457
15833.416978528141,5241.841702680791,-22817.018367888733,-30966.553803271512,-34369.09280646954,-34400.69817312934,-20640.629010275487,-28660.569031306393
15800.962245579034,5276.75512751998,-22775.287660990678,-30916.50824743608,-34387.4659404118,-34361.53791684365,-20640.919582953404,-28654.846984725835
15803.957379336045,5228.877690896713,-22786.150608795957,-30949.99116063013,-34260.26216271665,-34420.27830127219,-20588.84001837254,-28731.222895529616
15823.246934800976,5189.583324144283,-22828.216591860844,-30996.08045769697,-34228.83561001249,-34444.842868428575,-20580.2569485017,-28745.6844741922
15830.0865686043,5231.850472909269,-22817.867734178035,-30960.56353575749,-34340.9072567114,-34386.77303633369,-20622.03235888867,-28658.57972604987
15810.595847439272,5277.828011253835,-22768.98446905428,-30906.293500220003,-34384.291992699145,-34341.287236367134,-20627.061501391116,-28624.85094366681
15808.181859038099,5240.455894524562,-22773.566576667617,-30938.658826191288,-34280.24462225969,-34403.40273420844,-20582.425067713866,-28700.556302136934
15819.782414410403,5179.256818205931,-22821.444013290886,-31001.199007177238,-34213.7258307607,-34458.29861859067,-20572.4561896868,-28744.388073013793
15815.066196330334,5200.893306838669,-22829.445937805885,-30986.715076770197,-34315.53802675462,-34409.43770521137,-20618.254914075722,-28678.785703037465
15806.907809604147,5263.2993773578855,-22786.37412624051,-30925.091317306917,-34406.308460987624,-34347.67983528136,-20636.38217882898,-28631.33294955885
15796.335434476787,5246.870845183235,-22772.873672589503,-30935.26136103408,-34301.85875914797,-34381.69919034233,-20585.241387515234,-28688.039325241964
15822.330513278308,5199.239277748976,-22807.1836003284,-30991.408943105813,-34189.5188915156,-34450.81078419814,-20550.3503144205,-28738.755433411057
15826.666751702638,5199.93218182709,-22835.190336130898,-31001.444876366244,-34275.930735579816,-34430.60480721054,-20591.343413751532,-28684.44069438466
15799.509382189439,5249.776571962425,-22804.83666716059,-30947.59952397341,-34392.78565559217,-34356.44171910783,-20631.37538807099,-28629.81303093589
15790.591036151773,5246.960252161057,-22778.483960447786,-30939.396433758313,-34323.49524778071,-34374.34546641653,-20597.333681265554,-28682.540796105957
15817.547239964873,5203.329646984297,-22809.97756838531,-30989.620803549387,-34210.842455725964,-34432.16942932241,-20564.118989004968,-28755.429834774714
15827.22554531402,5194.45600443554,-22842.29819086769,-31007.658661324822,-34271.12511052193,-34430.31423453263,-20592.908035863406,-28701.137447492772
15803.756213635948,5234.733847944003,-22815.923132410426,-30958.194250845227,-34403.38038246398,-34389.63405962397,-20634.92931543938,-28635.15509786071
15776.174160978098,5244.166284104143,-22790.88917862048,-30943.106823337894,-34355.61470456299,-34378.078207740575,-20631.911829937915,-28680.260918171516
15795.240198998476,5203.799033617858,-22811.005748630258,-30988.36910585989,-34225.48284834419,-34426.022699597204,-20599.904131877916,-28761.487157522104
15821.727016178014,5190.544449155861,-22835.056225664168,-31010.765553804107,-34224.566426821526,-34424.48042922979,-20562.30849770409,-28705.786610339477
15808.003045082456,5231.805769420358,-22813.26327482024,-30968.207832361204,-34345.33290211355,-34368.39990239142,-20575.11604727698,-28599.973452088056
15787.46179192803,5247.161417861154,-22778.59571917006,-30938.345901768913,-34354.720634784775,-34361.26969591018,-20590.73991665124,-28630.37182454727
15816.340245764286,5209.588135431783,-22786.642347173973,-30974.84630046443,-34214.86576972792,-34412.27637675719,-20534.793500279608,-28713.63207264329
15835.540394251395,5180.754385084437,-22830.831745962114,-31020.980301020183,-34211.96004294873,-34438.38321428099,-20535.151128190893,-28709.29583421896
15810.55114395036,5225.971964117523,-22821.488716779797,-30985.03869593605,-34343.94709395732,-34378.79346356314,-20590.762268395694,-28622.86163841029
15783.416126181619,5256.817371465847,-22781.2779285047,-30940.871648892364,-34371.41738789289,-34338.73913749923,-20603.70392843532,-28620.224132564563
15786.053632027344,5208.98463833149,-22794.21958854432,-30974.175748130772,-34261.44680517278,-34406.06259179862,-20566.801198339606,-28716.8283721004
15814.663864930139,5171.1431349686545,-22832.17285062943,-31010.787905548565,-34209.523702803104,-34442.07125211612,-20553.92659353335,-28743.806927657955
15816.496707975473,5208.9399348425795,-22823.120394125035,-30970.17478587327,-34308.63133771793,-34392.47273116979,-20593.01979458568,-28655.942220204142
15786.768887849914,5252.1458568746875,-22783.200178527855,-30918.4975526926,-34373.384341404955,-34340.236704377734,-20609.448326760332,-28626.594379734324
15784.421954682108,5230.330554286308,-22777.14285578047,-30933.629683688843,-34261.22328772823,-34380.42514090838,-20567.69526811782,-28709.34053770787
15813.680388174105,5186.588190387272,-22811.072803863623,-30978.064951665994,-34182.20987107872,-34425.24038854127,-20543.06364572807,-28743.426948002216
15821.816423155837,5204.849565607258,-22823.70153948087,-30963.022227647572,-34290.92875610933,-34398.86533008401,-20587.610672427498,-28671.186109922663
15789.987539051479,5245.015650393445,-22792.61026294354,-30912.507285178577,-34389.63405962397,-34357.715768541784,-20624.625161245487,-28632.606998992804
15770.139189975167,5214.12553955621,-22788.430486730398,-30928.332320252935,-34301.814055659066,-34374.65839083891,-20593.01979458568,-28703.126752749296
15789.40639369564,5153.619367315694,-22832.66458900745,-30990.783094261064,-34210.93186270379,-34433.53288573419,-20568.656393129397,-28761.80008194448
15796.111917032233,5159.140248196155,-22848.579031059628,-30989.12906517137,-34290.57112819805,-34418.423106482405,-20596.70783242081,-28692.420267155205
15774.095448743756,5213.007952333445,-22811.385728285997,-30933.003834844094,-34396.40663819393,-34351.859611494496,-20633.07412064959,-28627.913132657188
15755.319983401298,5206.7718156304145,-22785.457704717843,-30922.587921927923,-34328.5020385387,-34354.49711734022,-20600.261759789202,-28674.315354146405
15758.963317747513,5128.004268169912,-22837.649028020984,-30995.99105071915,-34223.851170998954,-34428.30257753165,-20572.4561896868,-28758.559078998456
15786.232445982987,5133.614556028194,-22864.42641787844,-31012.844266038453,-34283.93266009482,-34430.44834499936,-20602.161658067904,-28724.271503004016
15775.436553411075,5199.328684726797,-22827.009597660257,-30957.300181067014,-34397.52422541669,-34370.120986714486,-20646.887498722972,-28646.018045665987
15748.189776920055,5201.943838828068,-22794.666623433426,-30939.418785502767,-34359.59331507603,-34367.05879772411,-20634.258763105725,-28674.069484957396
15768.798085307848,5151.741820781448,-22816.504277766264,-30987.095056425936,-34231.741336791674,-34422.93815886237,-20570.77980885265,-28744.25396254706
15789.004062295446,5127.53488153635,-22849.67426653794,-31022.36610917641,-34239.76561305113,-34448.84383068608,-20567.31528846208,-28716.381337211293
15767.345221918253,5175.009986759423,-22835.70442625337,-30981.618879034388,-34372.60203034902,-34381.96741127579,-20624.871030434493,-28635.646836238724
15741.171329161089,5202.323818483808,-22799.584007213594,-30945.52081173907,-34382.14622523144,-34350.13852717144,-20624.759271712217,-28645.459252054603
15733.817605235292,5134.195701384032,-22824.37209181453,-31014.274777683593,-34253.355473679956,-34432.70587118934,-20584.257910759203,-28744.11985208033
15735.762207002905,5072.683700643027,-22880.47497039735,-31080.659458715854,-34264.73251160771,-34492.45208411838,-20605.55912322511,-28762.090654622396
15743.182986162066,5115.1073116192,-22861.319525399154,-31030.23392322468,-34388.628231123475,-34426.98382460878,-20654.531795326686,-28679.7691797935
15745.708733285515,5176.686367593571,-22805.66368170544,-30967.44787304972,-34405.481446442776,-34383.21910896529,-20649.14502491296,-28664.52529007498
15741.841881494747,5148.5455213243395,-22805.26135030524,-30996.594547819444,-34279.55171818158,-34415.76324889222,-20598.674785932875,-28750.981837628107
15734.912840713603,5085.826526382748,-22861.85596726608,-31070.28824928859,-34236.30109266056,-34456.89045868999,-20599.97118711128,-28794.724201527144
15721.747663229426,5099.5281457338515,-22872.47304588235,-31063.04628408507,-34374.27841118317,-34427.54261822017,-20662.153740185946,-28725.702014649156
15710.661197979594,5154.893416749646,-22820.259370834752,-31002.249539166634,-34429.3754612655,-34382.72737058728,-20663.181920430892,-28672.638973312256
15721.077110895767,5146.39975385663,-22799.31578628013,-30997.019230964095,-34294.460331733266,-34395.93725156036,-20591.83515212955,-28735.87205837632
15750.089675198757,5107.351256293208,-22838.140766399,-31039.84517334046,-34210.14955164785,-34444.64170272848,-20557.547576135108,-28760.190756343694
15759.008021236423,5128.026619914368,-22858.458502108875,-31035.821859338506,-34327.29504433811,-34420.90415011694,-20616.55618149712,-28700.71276434812
15737.483291325963,5177.267512949409,-22824.19327785889,-30983.116445912892,-34424.41337399642,-34374.90426002792,-20655.068237193613,-28664.01119995251
15726.39682607613,5160.794277285848,-22809.32936779611,-30988.100884926425,-34330.58075077304,-34403.022754552694,-20617.94198965335,-28710.435773186182
15739.718465771493,5100.91395389008,-22852.51293808376,-31054.06088281404,-34231.56252283604,-34463.05954015965,-20580.07813454606,-28758.559078998456
15756.683439813072,5112.313343562287,-22876.094028484113,-31056.273705515112,-34307.62550921745,-34447.636836485486,-20602.116954578993,-28705.719555106112
15735.605744791717,5168.371518656197,-22844.354551357574,-30995.253443152124,-34409.325946489094,-34382.28033569817,-20636.113957895515,-28635.244504838527
15710.616494490683,5159.855504018725,-22819.678225478918,-30987.720905270686,-34362.767262788686,-34411.13643778997,-20619.46190827631,-28701.450371915147
15744.322925129287,5122.304573333809,-22830.89880119548,-31019.438030652767,-34234.73647054869,-34446.69806321836,-20566.756494850695,-28761.867137177844
15749.30736414282,5107.284201059842,-22866.77335104625,-31038.81699309552,-34288.40300898588,-34441.266589315725,-20593.84680913053,-28710.525180164004
15727.53676504335,5153.909939993613,-22845.650952535983,-30994.359373373914,-34418.37840299349,-34390.08109451307,-20654.151815670946,-28648.119109644787
15715.533878270851,5178.474507149996,-22808.591760229083,-30967.045541649528,-34376.9159170289,-34372.93730651585,-20632.94001018286,-28675.969383236097
15733.839956979748,5134.106294406211,-22831.94933318488,-31014.475943383688,-34250.51680213414,-34430.56010372163,-20589.532922450653,-28755.45218651917
15755.007058978923,5107.328904548754,-22878.709182585382,-31058.441824727277,-34273.02500880063,-34461.9866564258,-20617.517306508696,-28763.945849412186
15744.904070485125,5154.804009771826,-22862.23594692182,-31016.867580040405,-34392.38332419197,-34405.72731563179,-20653.593022059566,-28684.753618807033
15729.615477277695,5187.214039232021,-22808.65881546245,-30970.97944867366,-34392.115103258504,-34373.63021059397,-20636.56099278462,-28667.274554642983
15739.360837860208,5150.40071611413,-22821.153440612965,-31004.440010123257,-34268.4876046762,-34422.044089084164,-20582.916806091882,-28734.150974053264
15757.130474702177,5112.603916240206,-22865.76752254576,-31052.742129891176,-34241.68786307429,-34464.95943843835,-20579.429933956853,-28735.603837442857
15759.633870081172,5162.425954631085,-22851.440054349907,-31006.3175566575,-34363.03548372215,-34392.47273116979,-20617.763175697706,-28651.784795735457
15741.528957072373,5213.477338967006,-22807.071841606125,-30950.259381563592,-34402.48631268577,-34346.94222771433,-20627.061501391116,-28637.546734517426
15752.660125811117,5185.627065375694,-22807.809449173146,-30974.019285919585,-34284.4914537062,-34403.13451327497,-20577.999422311714,-28724.40561347075
15774.542483632862,5131.7593612384035,-22855.23985090731,-31032.84907732595,-34228.746203034665,-34461.87489770352,-20567.31528846208,-28757.329733053415
15769.69215508606,5151.451248103529,-22860.894842254504,-31014.699460828244,-34344.48353582425,-34421.10531581704,-20622.010007144214,-28686.474703130094
15743.406503606619,5207.196498775065,-22813.017405631235,-30953.723901954163,-34413.99746108025,-34365.784748290156,-20650.307315624636,-28652.522403302482
15734.890488969148,5181.6484548626495,-22801.394498514474,-30965.860899193398,-34306.150294083396,-34407.85073135504,-20598.183047554856,-28720.985796569086
15762.226672437988,5126.283183846854,-22846.701484525383,-31026.94821678975,-34224.25350239915,-34455.52700227821,-20566.667087872876,-28773.110064638862
15775.570663877807,5147.6067480572165,-22860.71602829886,-31016.822876551498,-34322.04238439112,-34433.219961311814,-20614.03043437367,-28710.7263458641
15758.315117158309,5202.435577206084,-22817.13012661101,-30955.959076399697,-34403.04510629715,-34371.19387044834,-20652.31897262561,-28650.15311839022
15750.335544387764,5195.841812591769,-22800.12044908052,-30954.88619266584,-34331.586579273535,-34383.308515943114,-20620.400681543433,-28710.324014463906
15778.744611590459,5148.009079457412,-22830.071786650635,-31009.446800881244,-34223.515894832126,-34441.400699782454,-20579.608747912498,-28766.091616879898
15790.546332662861,5157.128591195177,-22851.95414447238,-31013.04543173855,-34296.002602100685,-34429.040185098675,-20602.586341212555,-28705.20546498364
15777.69407960106,5219.869937881224,-22820.28172257921,-30956.4061112888,-34418.53486520468,-34371.640905337445,-20646.127539411493,-28635.736243216546
15760.952623004036,5215.623106434716,-22793.012594343734,-30947.241896062125,-34349.64678879342,-34382.28033569817,-20607.235504059256,-28681.19969143864
15780.510399402428,5166.896303522147,-22815.81137368815,-30993.062972195505,-34225.169923921814,-34435.92452239091,-20560.721523847762,-28747.494965493082
15784.936044804579,5141.25885263191,-22859.15140618699,-31023.81897256601,-34280.64695365989,-34461.94195293688,-20591.589282940542,-28717.76714536752
15764.439495139062,5186.923466554102,-22842.02996993422,-30979.3613528444,-34419.808914638634,-34403.71565863081,-20645.3228766111,-28644.14049913174
15746.982782719468,5208.023513319911,-22799.919283380426,-30948.31477979598,-34391.19868173584,-34381.45332115333,-20622.680559477874,-28662.58068830737
15763.433666638573,5161.375422641686,-22819.03002488971,-30993.241786151146,-34251.16500272334,-34435.90217064645,-20559.425122669356,-28740.923552623222
15793.385004208685,5147.383230612663,-22853.496414839796,-31023.103716743437,-34258.809299327055,-34452.598923754565,-20574.423143198866,-28729.25594201755
15789.562855906828,5198.211097504031,-22838.274876865733,-30983.049390679527,-34384.56021363261,-34388.53882414565,-20625.429824045877,-28645.19103112114
15766.317041673308,5234.443275266084,-22796.99120485678,-30936.98244535714,-34398.64181263946,-34354.76533827369,-20627.95557116933,-28648.186164878152
15771.010908008922,5192.712568368026,-22807.340062539588,-30973.952230686216,-34271.818014600045,-34417.46198147082,-20591.656338173907,-28740.40946250075
15795.575475165306,5153.2393876599535,-22848.646086292993,-31017.940463774263,-34242.090194474484,-34452.68833073239,-20584.950814837317,-28754.491061507593
15793.943797820068,5189.180992744087,-22846.477967080828,-30985.530434314067,-34369.830414036565,-34400.60876615152,-20632.492975293753,-28673.063656456907
15767.50168412944,5227.044847851378,-22804.27787354921,-30937.295369779513,-34421.217074539316,-34362.99078023324,-20651.491958080765,-28658.222098138584
15765.780599806381,5190.9244288116015,-22814.067937620635,-30987.60914654841,-34303.6468987044,-34417.707850659834,-20612.30935005061,-28750.378340527815
15785.338376204774,5141.750591009926,-22862.05713296618,-31056.72074040422,-34249.04158700009,-34475.6882757769,-20608.12957383747,-28788.51041656857
15792.088603030277,5175.345262926253,-22862.258298666275,-31022.455516154234,-34355.6594080519,-34436.595074724566,-20639.17614688589,-28711.709822620134
15774.564835377318,5231.470493253529,-22822.226324346822,-30949.58882922993,-34438.271455558715,-34388.29295495665,-20654.554147071143,-28680.05975247142
15776.55414063384,5216.65128667966,-22803.40615551545,-30947.286599551036,-34315.783895943634,-34401.99457430775,-20584.41437297039,-28706.658328373236
15797.833001355291,5168.416222145107,-22841.0911966671,-31004.641175823355,-34220.81133375303,-34450.87783943151,-20552.74195107722,-28731.625226929813
15808.025396826912,5181.067309506811,-22859.91136549847,-31009.893835770352,-34309.86068366298,-34424.61453969652,-20580.88279734645,-28664.257069141517
15779.303405201843,5224.519100727928,-22825.690844737393,-30961.614067746887,-34431.23065605529,-34367.729350057765,-20622.61350424451,-28620.00061512001
15768.775733563392,5221.814539648836,-22801.75212642576,-30958.440120034233,-34337.9568264433,-34383.71084734331,-20590.5611026956,-28684.48539787357
15792.535637919384,5168.282111678375,-22834.340969841596,-31009.111524714415,-34223.58295006549,-34442.78650793868,-20556.184119723337,-28757.620305731336
15810.864068372735,5165.711661066015,-22859.598441076094,-31019.169809719304,-34293.83448288852,-34432.30353978915,-20587.856541616507,-28720.49405819107
15799.576437422806,5225.301411783864,-22825.646141248482,-30969.303067839515,-34412.20932152383,-34366.52235585718,-20619.148983853935,-28657.596249293834
15777.492913900962,5235.94084214459,-22791.291510020677,-30951.332265297446,-34355.346483629524,-34359.615666820486,-20584.34731773702,-28686.76527580801
15789.898132073658,5181.894324051657,-22824.886181937003,-31007.837475280463,-34237.88806651688,-34423.519304218215,-20551.154977220893,-28769.757302970567
15804.113841547232,5163.297672664842,-22858.10087419759,-31035.553638405043,-34272.17564251133,-34441.847734671566,-20566.01888728367,-28750.64656146128
15799.509382189439,5221.568670459827,-22826.942542426892,-30978.020248177083,-34406.91195808792,-34375.75362631722,-20604.374480768976,-28666.849871498333
15778.901073801646,5239.919452657635,-22790.397440242465,-30947.532468740046,-34377.13943447345,-34349.42327134887,-20586.73895439374,-28681.780836794478
15776.665899356116,5177.6027891162385,-22821.33225456861,-31011.123181715393,-34253.221363213226,-34421.03826058367,-20554.083055744537,-28779.390904830805
15788.35586170624,5136.788503740848,-22872.405990648986,-31062.331028262503,-34276.556584424565,-34459.10328139106,-20575.94306182183,-28789.404486346783
15770.519169630907,5170.651396590638,-22865.499301612297,-31030.39038543587,-34406.867254599005,-34399.44647543984,-20635.622219517496,-28713.520313921013
15755.521149101396,5212.7620831444365,-22820.393481301486,-30980.769512745086,-34428.548446720655,-34365.29300991214,-20641.858356220528,-28699.461066658627
15775.548312133351,5184.21890547501,-22819.164135356445,-31001.24371066615,-34289.297078764095,-34406.040240054164,-20575.49602693272,-28779.12268389734
15808.360672993742,5153.552312082328,-22861.073656210145,-31042.125051274903,-34238.26804617263,-34439.590208481575,-20543.465977128268,-28780.08380890892
15800.403451967652,5186.6999491095485,-22861.20776667688,-31017.42637365179,-34361.38145463246,-34398.44064693936,-20591.07519281807,-28692.68848808867
15766.942890518058,5222.641554193682,-22822.919228424937,-30977.304992354515,-34428.39198450947,-34364.82362327858,-20624.155774611925,-28680.39502863825
15765.892358528657,5198.702835882049,-22813.352681798064,-30994.918166985295,-34302.52931148164,-34391.8692340695,-20567.31528846208,-28749.953657383165
15797.07304204381,5160.861332519214,-22846.477967080828,-31039.04051054007,-34231.741336791674,-34435.92452239091,-20543.577735850544,-28778.340372841405
15805.611408425739,5188.689254366071,-22855.41866486295,-31020.33210043098,-34340.41551833338,-34398.977088806285,-20595.478486475764,-28695.862435801322
15778.856370312737,5230.710533942049,-22825.62378950403,-30975.27098360908,-34435.70100494636,-34358.140451686435,-20638.505594552233,-28661.19488015114
15773.98369002148,5209.588135431783,-22815.56550449914,-30988.03382969306,-34347.03163469215,-34389.18702473486,-20607.79429767064,-28739.560096211448
15794.79316410937,5160.280187163376,-22852.468234594853,-31038.86169658443,-34249.62273235592,-34438.15969683644,-20573.5067216762,-28790.92440496974
15791.574512907806,5163.722355809493,-22876.71987732886,-31042.90736233084,-34341.98014044525,-34426.29092053067,-20623.194649600347,-28743.516354980035
15771.010908008922,5218.327667513808,-22833.46925180784,-30982.13296915686,-34436.5280194912,-34354.78769001814,-20649.50265282424,-28680.238566427062
15764.752419561437,5213.723208156015,-22806.535399739194,-30973.50519579711,-34348.46214633729,-34362.208469177305,-20603.681576690862,-28717.96831106762
15788.065289028322,5165.331681410275,-22840.28653386671,-31031.776193592097,-34234.31178740404,-34429.39781300996,-20564.54367214962,-28780.8437682204
15795.284902487387,5156.435687117063,-22871.444865637408,-31053.4797374582,-34307.469047006256,-34442.09360386057,-20608.867181404494,-28750.803023672466
15775.034222010878,5212.8738418667135,-22840.28653386671,-30996.594547819444,-34426.805010653145,-34376.84886179553,-20653.727132526295,-28677.601060581335
15768.64162309666,5237.75133344547,-22794.711326922337,-30963.402207303312,-34375.30659142812,-34359.63801856495,-20619.37250129849,-28701.76329633752
15785.561893649328,5184.017739774912,-22822.3380830691,-31023.148420232348,-34248.952180022265,-34417.46198147082,-20578.31234673409,-28786.61051828987
15807.89128636018,5174.562951870317,-22859.91136549847,-31050.059920556538,-34280.624601915435,-34435.43278401289,-20600.574684211577,-28761.576564499923
15790.456925685041,5227.201310062565,-22834.966818686346,-30992.057143695016,-34412.410487223926,-34374.61368735,-20638.058559663124,-28670.29204014445
15770.78739056437,5245.976775405023,-22793.280815277198,-30957.6578089783,-34390.34931544654,-34352.15018417242,-20616.153850096925,-28679.94799374914
15783.952568048546,5197.8534695927465,-22807.854152662057,-30999.723792043187,-34254.964799280744,-34412.7234116463,-20568.16465475138,-28767.07509363593
15810.528792205907,5170.494934379451,-22841.64999027848,-31037.453536683744,-34245.241790442684,-34438.4279177699,-20578.1558845229,-28758.916706909742
15801.69985314606,5217.36654250223,-22829.89297269499,-30993.80057976253,-34373.27258268268,-34372.557326860115,-20612.2646465617,-28660.993714451044
15775.50360864444,5249.620109751238,-22790.062164075633,-30951.68989320873,-34393.165635247904,-34341.60016078951,-20613.963379140303,-28655.852813226324
15773.156675476632,5204.827213862803,-22804.27787354921,-30999.634385065365,-34268.71112212075,-34409.99649882275,-20573.350259465013,-28750.914782394742
15788.64643438416,5159.6990418075375,-22853.407007861973,-31056.497222959668,-34241.084365974,-34441.847734671566,-20573.59612865402,-28770.561965770958
15781.091544758267,5184.040091519367,-22859.28551665372,-31038.280551228592,-34367.97521924677,-34399.267661484206,-20631.822422960096,-28693.314336933418
15758.896262514147,5231.93987988709,-22814.291455065188,-30984.546957558032,-34421.39588849496,-34353.401881861915,-20645.904021966937,-28667.073388942885
15769.64745159715,5211.376274988208,-22805.954254383356,-30999.61203332091,-34296.02495384514,-34379.48636764126,-20592.84098063004,-28744.209259058152
15796.469544943518,5167.87978027818,-22839.392464088498,-31051.423376968312,-34223.80646751004,-34434.80693516814,-20572.16561700888,-28778.250965863583
15795.17314376511,5182.78839382987,-22853.585821817618,-31045.701330387754,-34345.355253858004,-34414.44449596936,-20632.828251460585,-28712.961520309633
15765.601785850738,5227.89421414068,-22815.006710887756,-30993.353544873426,-34435.20926656834,-34365.11419595649,-20659.650344806952,-28673.95772623512
15760.751457303937,5215.712513412537,-22794.35369901105,-30993.13002742887,-34332.03361416264,-34381.22980370877,-20612.152887839424,-28738.710729922146
15795.106088531744,5171.098431479744,-22829.311827339152,-31042.594437908465,-34226.86865650042,-34431.275359544205,-20577.150056022412,-28785.98466944512
15797.69889088856,5175.1217454817,-22854.144615429,-31046.61775191042,-34315.716840710265,-34420.434763483376,-20617.070271619592,-28723.53389543699
15764.037163738867,5221.523966970917,-22825.13205112601,-30997.622728064387,-34433.801106667655,-34372.42321639338,-20655.85054824955,-28664.033551696964
15756.415218879607,5225.301411783864,-22791.447972231865,-30980.523643556076,-34348.149221914915,-34366.544707601635,-20618.612541987008,-28713.408555198737
15779.102239501744,5176.820478060303,-22821.84634469108,-31032.692615114764,-34225.9298832333,-34423.56400770712,-20575.02664029916,-28781.782541487522
15791.574512907806,5170.137306468166,-22854.323429384644,-31049.881106600897,-34290.191148542304,-34428.615501954024,-20605.089736591548,-28741.0353113455
15782.700870359049,5227.201310062565,-22819.566466756638,-30991.967736717193,-34408.14130403296,-34369.070454725086,-20646.999257445248,-28660.323162117384
15768.731030074481,5239.025382879422,-22780.808541871138,-30963.670428236775,-34364.644809322934,-34360.64384706543,-20618.232562331268,-28687.882863030776
15784.824286082303,5182.631931618683,-22805.26135030524,-31008.440972380755,-34227.829781511995,-34421.351185006046,-20559.894509302918,-28756.59212548639
15786.880646572192,5147.07030619029,-22851.685923538917,-31048.830574611497,-34253.154307979865,-34445.736938206785,-20584.41437297039,-28741.504697979057
15772.955509776535,5196.311199225331,-22834.206859374866,-31002.540111844555,-34402.66512664141,-34381.58743162006,-20637.455062562833,-28665.642877297745
15747.094541441744,5218.148853558166,-22796.186542056388,-30966.79967246052,-34393.389152692456,-34358.788652275645,-20625.83215544607,-28674.740037291056
15752.280146155375,5167.700966322537,-22818.918266167435,-31018.387498663367,-34262.519688906636,-34428.77196416521,-20589.845846873028,-28764.795215701488
15786.098335516255,5149.149018424633,-22848.86960373755,-31050.305789745547,-34246.649950343366,-34442.115955605026,-20588.616500927987,-28757.977933642618
15780.912730802624,5190.566800900317,-22837.783138487714,-31009.066821225504,-34369.18221344736,-34381.52037638669,-20611.527038994675,-28664.748807519532
15755.54350084585,5227.424827507118,-22792.543207710172,-30963.916297425785,-34407.73897263277,-34357.51460284169,-20618.791355942652,-28660.09964467283
15749.821454265291,5185.738824097971,-22799.852228147058,-30997.153341430825,-34293.141578810406,-34400.944042318355,-20573.864349587482,-28744.67864569171
15788.199399495054,5155.161637683111,-22831.055263406666,-31029.786888335573,-34231.540171091576,-34436.43861251338,-20568.678744873854,-28754.580468485412
15781.739745347471,5181.0002542734455,-22835.257391364266,-31010.452629381733,-34342.11425091198,-34410.24236801176,-20617.003216386227,-28675.589403580358
15753.30832640032,5223.55797571635,-22793.683146677395,-30956.4061112888,-34405.70496388733,-34351.32316962757,-20631.867126449004,-28646.84506021083
15755.118817701199,5201.161527772132,-22787.536416952185,-30973.348733585924,-34294.01329684416,-34385.94602178884,-20584.056745059104,-28732.854572874854
15781.650338369649,5153.8875882491575,-22836.106757653568,-31029.161039490828,-34229.32734839051,-34433.26466480073,-20567.471750673267,-28775.904032695777
15793.78733560888,5181.491992651462,-22846.053283936177,-31012.017251493606,-34337.84506772102,-34400.25113824024,-20618.567838498097,-28692.040287499465
15762.629003838183,5225.323763528319,-22812.391556786486,-30967.291410838538,-34426.6261966975,-34364.60010583402,-20655.09058893807,-28650.667208512692
15746.044009452346,5207.487071452984,-22798.46641999083,-30978.646097021832,-34337.9568264433,-34391.51160615821,-20613.114012851,-28722.237494258585
15775.905940044635,5155.7651347834035,-22834.02804541922,-31032.647911625852,-34233.59653158147,-34436.25979855774,-20569.394000696422,-28773.51239603906
15778.565797634817,5154.40167837163,-22860.20193817639,-31045.030778054093,-34309.88303540743,-34426.98382460878,-20607.660187203906,-28718.68356689019
15748.726218786982,5210.482205209995,-22819.253542334267,-30988.07853318197,-34426.76030716423,-34375.93244027286,-20641.88070796498,-28655.204612637117
15743.205337906522,5227.603641462761,-22778.707477892338,-30957.478995022655,-34353.5583440731,-34363.21429767779,-20598.5630272106,-28685.35711590733
15749.888509498658,5158.179123184576,-22825.824955204127,-31033.251408726148,-34220.8783889864,-34431.38711826648,-20558.665163357873,-28761.59891624438
15759.276242169886,5135.760323495904,-22878.172740718455,-31067.181356809302,-34306.977308628244,-34450.45315628686,-20613.806916929116,-28752.010017873054
15756.25875666842,5199.753367871448,-22833.62571401903,-30999.52262634309,-34426.06740308612,-34378.212318207305,-20642.417149831912,-28660.43492083966
15737.550346559328,5217.143025057677,-22790.26332977573,-30968.766625972585,-34371.37268440398,-34358.22985866426,-20615.17037334089,-28685.15595020723
15761.064381726312,5176.418146660108,-22809.32936779611,-31017.00169050714,-34240.4808688737,-34424.636891440976,-20577.395925211422,-28775.680515251224
15790.903960574147,5166.9186552666015,-22839.32540885513,-31044.695501887265,-34246.40408115436,-34437.39973752496,-20584.16850378138,-28739.470689233625
15780.488047657973,5209.1187487982215,-22833.156327385466,-31005.065858968006,-34403.35803071952,-34391.42219918039,-20646.395760344956,-28661.373694106784
15761.533768359874,5235.873786911224,-22790.531550709195,-30966.64321024933,-34395.93725156036,-34385.61074562201,-20630.011931659214,-28684.463046129116
15754.35885838972,5180.284998450876,-22808.79292592918,-31012.46428638271,-34262.31852320654,-34439.97018813732,-20582.64858515842,-28799.529826585036
15766.227634695488,5139.783637497859,-22860.872490510046,-31054.99965608116,-34269.06875003204,-34442.40652828295,-20603.83803890205,-28758.424968531726
15774.430724910586,5190.723263111504,-22841.71704551185,-31005.825818279485,-34391.10927475802,-34377.9664490183,-20643.870013221505,-28651.404816079717
15765.534730617373,5249.0389643954,-22777.94751858086,-30940.55872446999,-34400.87698708499,-34338.51562005468,-20618.45607977582,-28626.259103567496
15771.681460342583,5211.040998821378,-22779.489788948275,-30971.3594283294,-34263.6372761294,-34392.98682129226,-20553.25604119969,-28711.598063897858
15794.569646664817,5163.677652320583,-22824.886181937003,-31022.299053943047,-34203.444028311256,-34443.72528120581,-20551.02086675416,-28742.152898568263
15794.12261177571,5198.635780648682,-22830.295304095187,-30998.09211469795,-34340.75079450021,-34404.632080153475,-20621.004178643725,-28671.90136574523
15780.912730802624,5252.9058161861685,-22791.716193165328,-30936.423651745758,-34424.74865016325,-34356.77699527467,-20656.0740656941,-28651.158946890708
15780.175123235598,5230.598775219772,-22780.60737617104,-30946.75015768411,-34300.897634136396,-34386.86244331151,-20585.464904959787,-28704.132581249785
15799.196457767066,5178.206286216532,-22825.24380984829,-31005.624652579387,-34209.47899931419,-34430.090717088075,-20549.38918940892,-28737.704901421657
15819.871821388224,5215.5784029458055,-22823.723891225327,-30978.5119865551,-34304.71978243825,-34387.39888517844,-20593.712698663796,-28666.224022653583
15792.334472219287,5265.199275636587,-22784.608338428538,-30917.78229687003,-34405.28028074268,-34340.683739266846,-20629.430786303375,-28615.016176106477
15779.370460435208,5249.7989237068805,-22766.369314953008,-30922.45381146119,-34317.61673898897,-34375.95479201732,-20593.310367263603,-28682.361982150316
15813.702739918559,5210.83983312128,-22792.163228054433,-30968.923088183772,-34195.01742065161,-34410.644699411954,-20555.44651215631,-28741.92938112371
15829.840699415292,5212.739731399981,-22820.572295257127,-30981.060085423003,-34284.55850893957,-34412.34343199056,-20604.64270170244,-28701.942110293166
15803.152716535655,5259.343118589297,-22786.35177449605,-30924.68898590672,-34397.45717018333,-34348.03746319264,-20626.927390924382,-28624.180391333153
15797.117745532722,5270.89897047269,-22746.386855409964,-30898.425686171733,-34325.439849548326,-34346.070509680576,-20579.631099656952,-28647.739129989044
15827.918449392135,5227.067199595833,-22773.85714934554,-30951.801651931008,-34198.07960964199,-34415.00328958074,-20546.885794029928,-28728.585389683893
15843.765836210947,5219.445254736574,-22812.369205042032,-30978.534338299556,-34243.47600263071,-34418.17723729339,-20573.998460054216,-28705.54074115047
15834.065179117344,5276.732775775526,-22776.49465519126,-30918.631663159333,-34365.27065816768,-34344.0588526796,-20605.73793718075,-28614.43503075064
15799.978768823,5288.847421270302,-22745.22456469829,-30894.022392514038,-34342.94126545683,-34342.11425091198,-20593.936216108348,-28648.990827678543
15812.585152695794,5237.192539834087,-22768.179806253887,-30946.012550117084,-34205.16511263432,-34416.47850471479,-20550.573831865055,-28734.128622308806
15844.346981566785,5212.940897100079,-22803.60732121555,-30979.42840807777,-34215.20104589475,-34431.74474617776,-20572.277375731155,-28723.332729736892
15828.99133312599,5256.817371465847,-22793.0796495771,-30939.619951202865,-34370.8138907926,-34389.52230090169,-20637.94680094085,-28656.925696960177
15816.004969597456,5299.196278953109,-22742.140023963457,-30883.07003773094,-34366.678818068365,-34331.854800206995,-20611.12470759448,-28635.71389147209
15831.830004671814,5260.661871512159,-22745.045750742647,-30908.88630257682,-34216.69861277325,-34374.14430071644,-20533.318285145557,-28698.29877594695
15866.13993241071,5230.598775219772,-22782.03788781618,-30946.7054541952,-34188.893042670854,-34408.5212836887,-20533.005360723182,-28703.19380798266
15851.879519448225,5252.7940574638915,-22789.928053608903,-30927.304140007993,-34339.40968983289,-34388.114141001,-20611.370576783487,-28644.743996232035
15809.142984049677,5284.71234854607,-22759.50732940523,-30887.182758710715,-34395.2219957378,-34343.92474221286,-20633.409396816423,-28638.552563017915
15811.489917217485,5258.761973233459,-22748.26440194421,-30902.56075889597,-34243.16307820834,-34364.91303025639,-20556.809968568083,-28700.39983992575
15839.161376853155,5214.013780833934,-22795.694803678372,-30960.429425290757,-34184.33328680197,-34414.33273724708,-20543.957715506283,-28721.231665758096
15835.94272565159,5235.627917722216,-22806.870675906026,-30945.49845999461,-34322.8023437026,-34389.34348694605,-20614.812745429605,-28657.171566149183
15816.250838786465,5287.3051509028855,-22755.327553192088,-30882.667706330743,-34391.489254413755,-34335.38637583094,-20633.431748560877,-28621.47583025406
15813.009835840445,5259.968967434045,-22746.856242043526,-30901.331412950924,-34278.12120653644,-34375.4630536393,-20579.83226535705,-28691.548549121446
15843.94465016659,5209.275211009409,-22781.16616978242,-30957.4566432782,-34163.6132196919,-34431.6776909444,-20531.172517677845,-28730.48528796259
15860.015554429956,5239.785342190903,-22793.03494608819,-30940.245800047614,-34270.3875029549,-34373.92078327188,-20577.485332189244,-28659.451444083625
15838.60258324177,5304.538345877927,-22748.93495427787,-30876.185700438706,-34384.448454910336,-34314.33103255404,-20614.723338451786,-28600.554597443894
15817.055501586856,5284.555886334883,-22734.898058759936,-30885.595784854388,-34289.83352063102,-34348.506849826204,-20579.45228570131,-28670.11322618881
15832.880536661212,5219.266440780931,-22782.954309338846,-30954.617971732376,-34183.48392051267,-34426.022699597204,-20548.562174864077,-28742.7340439241
15837.574402996828,5212.337399999786,-22810.60341723006,-30970.666524251286,-34266.02891278612,-34425.24038854127,-20598.07128883258,-28712.425078442706
15822.241106300487,5279.169115921154,-22764.60352714104,-30899.5432733945,-34381.47567289778,-34346.27167538067,-20636.471585806798,-28629.209533835598
15815.289713774886,5300.626790598249,-22730.561820335606,-30876.364514394347,-34330.02195716166,-34344.997625946715,-20610.342396538545,-28665.24054589755
15842.312972821353,5243.003993392467,-22766.704591119837,-30942.525677982056,-34198.884272442374,-34421.44059198387,-20561.92851804835,-28740.96825611213
15854.181749127121,5222.485091982495,-22801.55096072566,-30967.06789339398,-34228.38857512338,-34423.80987689613,-20578.22293975627,-28712.26861623152
15830.377141282219,5279.370281621252,-22767.41984694241,-30905.466485675155,-34362.16376568839,-34360.75560578771,-20620.534792010163,-28630.57299024737
15807.734824148993,5292.758976549981,-22731.992331980746,-30877.839729528398,-34343.50005906821,-34345.623474791464,-20605.335605780558,-28655.1152056593
15823.001065611967,5240.388839291196,-22757.138044492967,-30929.606369686888,-34203.6228422669,-34404.497969686745,-20558.039314513127,-28738.39780549977
15845.173996111633,5214.416112234129,-22803.294396793175,-30971.493538796134,-34216.788019751075,-34425.463905985824,-20576.36774496648,-28727.06547106093
15834.623972728727,5263.031156424422,-22787.245844274265,-30931.32745400995,-34362.6108005775,-34376.44653039533,-20635.532812539677,-28649.39315907874
15807.578361937805,5294.591819595315,-22743.011741997212,-30891.273127946035,-34379.41931240789,-34346.13756491394,-20630.99540841525,-28650.086063156854
15820.31885627733,5254.112810386755,-22751.55010837914,-30929.807535386986,-34230.06495595753,-34390.55048114663,-20570.243366985724,-28728.004244328054
15843.765836210947,5214.572574445317,-22801.886236892493,-30979.94249820024,-34202.81817946651,-34442.2277143273,-20568.276413473657,-28738.263695033038
15844.145815866688,5262.271197112942,-22783.93778609488,-30935.775451156554,-34332.59240777402,-34385.90131829993,-20616.824402430582,-28649.728435245568
15809.500611960962,5300.202107453598,-22743.726997819784,-30887.830959299918,-34379.955754274815,-34327.27269259366,-20631.64360900445,-28639.111356629295
15819.245972543476,5272.7541652624805,-22740.64245708495,-30910.83090434443,-34256.372959181426,-34378.86051879651,-20580.793390368628,-28712.24626448706
15846.448045545585,5218.707647169548,-22790.308033264642,-30969.481881795156,-34190.68118222728,-34435.23161831279,-20570.265718730177,-28736.788479898987
15839.317839064342,5240.858225924758,-22800.299263036166,-30947.711282695687,-34306.977308628244,-34393.90324281493,-20619.283094320668,-28667.34160987635
15814.999141096967,5297.899877774701,-22751.103073490034,-30884.165273209248,-34390.55048114663,-34330.69250949532,-20641.813652731616,-28625.677958211658
15816.899039375669,5282.1418979337095,-22728.930142990368,-30886.556909865965,-34267.59353489799,-34358.073396453074,-20579.564044423587,-28682.987830995065
15838.51317626395,5219.1546820586545,-22781.88142560499,-30953.36627404288,-34184.556804246524,-34432.750574678255,-20557.659334857384,-28739.291875277984
15848.526757779928,5234.085647354799,-22802.333271781597,-30949.61118097439,-34293.67802067733,-34414.33273724708,-20620.13246060997,-28689.335726420373
15816.27319053092,5288.042758469911,-22761.630745128485,-30886.73572382161,-34401.65929814092,-34353.62539930647,-20653.43655984838,-28629.924789658166
15807.980693338,5291.931962005135,-22726.627913311473,-30868.80962476845,-34300.182378313824,-34353.5583440731,-20592.684518418853,-28667.67688604318
15833.126405850222,5234.84560666628,-22762.725980606792,-30927.63941617482,-34177.158376831816,-34415.29386225866,-20544.181232950836,-28722.416308214226
15845.621031000737,5225.256708294954,-22799.204027557855,-30949.387663529837,-34256.30590394806,-34424.25691178524,-20596.84194288754,-28691.280328187982
15816.161431808643,5271.547171061894,-22771.152588266443,-30897.755133838076,-34388.78469333467,-34367.88581226895,-20643.221812632302,-28634.305731571407
15803.063309557834,5290.210877682076,-22731.992331980746,-30870.195432924684,-34332.19007637383,-34353.670102795375,-20606.207323814313,-28654.690522514647
15824.833908657303,5237.75133344547,-22756.825120070593,-30920.531561438034,-34185.964964147206,-34400.49700742924,-20555.6029743675,-28716.671909889214
15849.174958369133,5218.528833213906,-22789.995108842268,-30948.270076307068,-34224.09704018796,-34412.23167326828,-20578.357050223,-28696.220063712608
15838.647286730682,5282.47717410054,-22763.50829166273,-30891.094313990394,-34356.5087743412,-34346.964579458785,-20620.646550732443,-28613.94329237262
15806.661940415139,5297.251677185497,-22726.40439586692,-30861.88058398731,-34346.00345444721,-34338.448564821316,-20605.49206799174,-28634.462193782594
15817.12255682022,5240.8805776692125,-22747.72796007728,-30911.903788078285,-34204.829836467485,-34403.11216153052,-20555.066532500572,-28717.54362792297
15838.110844863755,5210.7057226545485,-22797.237074045788,-30954.416806032277,-34206.52856904609,-34433.35407177854,-20569.997497796714,-28715.44256394417
15820.900001633168,5250.51417952945,-22791.716193165328,-30917.424668958745,-34359.548611587124,-34372.42321639338,-20632.738844482763,-28643.402891564714
15794.860219342736,5286.411081124674,-22747.862070544015,-30873.481139359614,-34381.94505953134,-34343.83533523504,-20628.402606058433,-28638.150231617718
15809.590018938783,5248.122542872732,-22748.10793973302,-30903.41012518527,-34230.64610131337,-34395.89254807145,-20564.364858193978,-28711.19573249766
15837.127368107722,5206.972981330512,-22799.98633861379,-30961.770529958074,-34196.60439450794,-34446.92158066292,-20567.337640206533,-28732.6310554303
15832.433501772108,5249.217778351042,-22797.371184512518,-30931.30510226549,-34333.665291507874,-34390.37166719099,-20629.117861881,-28666.492243587047
15807.108975304243,5298.838651041824,-22741.134195462968,-30866.82031951193,-34381.028638008676,-34329.86549495048,-20623.4181670449,-28628.918961157677
15807.377196237709,5263.634653524716,-22739.569573351095,-30896.72695359313,-34246.58289511,-34383.77790257667,-20561.68264885934,-28704.356098694338
15834.668676217638,5211.55508894385,-22792.99024259928,-30954.12623335436,-34200.493598043155,-34432.34824327806,-20539.48736661522,-28720.784630868988
15835.808615184858,5234.532682243906,-22804.2331700603,-30941.98923611513,-34308.67604120685,-34394.84201608205,-20597.154867309913,-28650.667208512692
15803.867972358225,5279.504392087983,-22769.476207432297,-30898.090410004905,-34396.56310040511,-34350.63026554946,-20630.79424271515,-28627.644911723724
15804.449117714063,5270.407232094673,-22745.40337865393,-30900.526750150533,-34275.103721034975,-34365.67298956788,-20570.064553030083,-28688.307546175427
15827.56082148085,5222.686257682593,-22778.37220172551,-30957.993085145128,-34170.452853495226,-34408.834208111075,-20526.188078664312,-28729.837087373387
15825.37035052423,5225.524929228417,-22810.22343757432,-30973.125216141372,-34282.41274147186,-34406.39786796545,-20579.899320590415,-28683.457217628627
15802.03512931289,5278.006825209478,-22775.578233668595,-30918.58695967042,-34404.7214871313,-34356.397015618924,-20616.98086464177,-28633.14344085973
15796.380137965696,5279.035005454422,-22741.55887860762,-30904.21478798566,-34315.60508198799,-34348.59625680402,-20569.841035585527,-28683.23370018407
15824.833908657303,5235.046772366378,-22770.102056277046,-30956.137890355338,-34190.32355431599,-34400.42995219588,-20512.77703199113,-28736.609665943346
15832.545260494384,5222.775664660414,-22809.642292218483,-30981.75298950112,-34269.649895387876,-34423.11697281802,-20557.055837757092,-28706.703031862144
15796.938931577079,5265.914531459157,-22789.257501275242,-30942.525677982056,-34410.91292034542,-34366.34354190154,-20629.631952003474,-28661.127824917774
15786.187742494076,5290.52380210445,-22746.230393198777,-30913.490761934612,-34355.94998072982,-34348.79742250412,-20583.810875870095,-28697.091781746363
15816.206135297554,5237.594871234282,-22764.380009696488,-30960.87646017986,-34195.755028218635,-34407.0684202991,-20507.412613321856,-28747.629075959812
15839.183728597609,5214.393760489674,-22803.60732121555,-30995.968698974695,-34234.132973448395,-34417.43962972637,-20547.73516031923,-28731.781689141
15814.105071318756,5255.923301687634,-22792.051469332157,-30958.820099689976,-34377.9664490183,-34361.06853021008,-20599.948835366828,-28656.47866207107
15793.653225142149,5278.766784520958,-22751.617163612507,-30926.700642907697,-34372.78084430467,-34350.58556206054,-20580.07813454606,-28672.370752378793
15816.183783553099,5237.170188089632,-22764.380009696488,-30967.246707349626,-34226.019290211116,-34395.51256841571,-20523.01413095166,-28750.288933549993
15831.315914549341,5205.967152830023,-22808.904684651458,-31009.022117736593,-34219.827856997,-34423.295786773655,-20533.519450845655,-28747.047930603974
15811.80284163986,5250.380069062719,-22793.347870510563,-30971.158262629306,-34364.04131222264,-34375.93244027286,-20595.590245198044,-28674.918851246697
15786.344204705263,5291.8872585162235,-22747.571497866094,-30924.443116717714,-34394.75260910423,-34339.92377995537,-20603.592169713043,-28667.319258131894
15801.208114768044,5253.464609797551,-22754.1205589915,-30959.825928190465,-34251.07559574552,-34382.66031535391,-20548.808044053083,-28747.83024165991
15831.315914549341,5207.799995875358,-22804.61314971604,-31016.554655618034,-34213.234092382685,-34426.13445831948,-20541.655485827385,-28752.434701017704
15828.477243003517,5242.020516636434,-22802.243864803775,-30989.173768660283,-34343.88003872395,-34379.24049845225,-20589.957605595304,-28675.902328002732
15784.623120382204,5278.252694398487,-22760.69197186136,-30940.491669236624,-34413.34926049105,-34343.72357651276,-20600.708794678307,-28661.8654324848
15782.432649425586,5242.601661992271,-22758.009762526723,-30963.64807649232,-34274.120244278936,-34389.83522532407,-20546.93049751884,-28730.015901329032
15809.634722427694,5193.293713723864,-22802.959120626347,-31021.784963820573,-34202.393496321856,-34435.03045261269,-20533.228878167734,-28763.923497667733
15808.807707882848,5211.1751092881095,-22814.89495216548,-31011.45845788222,-34328.0550036496,-34413.21515002431,-20588.437686972346,-28696.465932901614
15782.455001170041,5266.026290181433,-22770.660849888427,-30946.973675128662,-34422.51347571772,-34350.47380333827,-20616.2656088192,-28656.43395858216
15789.339338462274,5259.209008122565,-22737.334398905565,-30938.435308746735,-34298.729514924235,-34354.720634784775,-20566.22005298377,-28713.475610432102
15812.27222827342,5197.406434703641,-22785.301242506655,-31007.27868166908,-34198.414885808816,-34434.18108632339,-20542.527203861144,-28777.491006552103
15826.17501332462,5209.9457633430675,-22808.18942882889,-31007.81512353601,-34296.15906431187,-34427.4755629868,-20588.795314883628,-28728.048947816962
15792.759155363938,5260.259540111964,-22774.41594295692,-30951.868707164373,-34416.81378088162,-34349.24445739323,-20629.073158392093,-28659.987885950555
15777.403506923141,5253.151685375176,-22746.45391064333,-30946.37017802837,-34333.73234674124,-34360.01799822068,-20594.472657975275,-28705.741906850566
15811.914600362135,5203.88844059568,-22776.31584123562,-30999.008536220615,-34211.401249337345,-34430.940083377376,-20551.378494665445,-28775.345239084392
15823.202231312065,5207.822347619814,-22808.882332907004,-31011.749030560142,-34276.86950884694,-34430.33658627708,-20584.637890414942,-28737.16845955473
15801.923370590614,5262.695880257593,-22772.828969100592,-30952.74042519813,-34389.3658386905,-34365.71769305679,-20617.47260301979,-28649.594324778835
15777.26939645641,5271.033080939422,-22742.58705885256,-30934.233180789135,-34361.13558544345,-34356.888753996944,-20602.675748190373,-28688.64282234226
15804.31500724733,5228.542414729884,-22760.200233483345,-30976.52268129858,-34218.5761593075,-34409.61651916701,-20546.148186462902,-28754.893392907787
15834.825138428825,5211.040998821378,-22792.07382107661,-31005.490542112657,-34232.07661295851,-34420.658280927935,-20555.044180756115,-28725.433793715692
15809.590018938783,5251.162380118654,-22787.737582652284,-30968.856032950407,-34389.611707879514,-34371.95382975982,-20622.814669944604,-28657.8644702273
15777.001175522946,5267.300339615386,-22759.775550338694,-30944.202058816205,-34392.830359081076,-34369.58454484756,-20622.61350424451,-28677.779874536976
15788.825248339803,5217.321839013319,-22770.146759765954,-30989.777265760575,-34262.11735750644,-34422.62523444,-20564.54367214962,-28756.122738852828
15824.65509470166,5196.847641092258,-22799.13697232449,-31019.549789375043,-34231.29430190257,-34441.065423615626,-20563.44843667131,-28745.952695125663
15819.760062665948,5250.067144640344,-22780.294451748665,-30977.662620265797,-34354.586524318045,-34389.07526601258,-20612.108184350513,-28659.518499316993
15787.797068094858,5284.0194444679555,-22742.944686763847,-30929.40520398679,-34393.34444920355,-34356.46407085229,-20603.346300524034,-28646.86741195529
15794.480239686996,5240.969984647034,-22757.11569274851,-30960.183556101747,-34260.95506679476,-34395.266699226704,-20548.137491719426,-28722.863343103334
15820.117690577234,5189.382158444186,-22808.65881546245,-31016.934635273774,-34204.8745399564,-34435.96922587982,-20544.851785284496,-28743.136375324295
15820.251801043965,5232.744542687481,-22788.0281553302,-30981.88709996785,-34329.26199785018,-34396.13841726046,-20596.149038809424,-28661.10547317332
15781.180951736087,5270.206066394576,-22757.83094857108,-30939.59759945841,-34416.322042503605,-34353.89362023993,-20628.849640947537,-28644.788699720946
15778.364631934719,5236.074952611322,-22754.388779924964,-30962.79871020302,-34296.069657334054,-34398.15007426144,-20590.292881762136,-28725.478497204604
15817.301370775864,5198.0769870373,-22791.157399553944,-31011.23494043767,-34199.24190035366,-34447.74859520776,-20545.276468429147,-28748.65725620476
15827.292600547386,5222.641554193682,-22809.731699196305,-30998.650908309333,-34325.61866350397,-34415.539731447665,-20595.366727753488,-28677.645764070247
15801.386928723685,5274.251732140986,-22775.31001273513,-30939.93287562524,-34431.38711826648,-34360.107405198505,-20631.531850282176,-28632.51759201498
15801.811611868336,5264.416964580651,-22731.92527674738,-30938.83764014693,-34310.86651216346,-34387.153015989425,-20573.976108309762,-28686.34059266336
15828.119615092233,5210.213984276532,-22779.534492437186,-30997.13098968637,-34203.66754575581,-34436.21509506882,-20548.53982311962,-28735.31326476494
15837.596754741284,5215.645458179171,-22805.775440427715,-31003.143608944847,-34301.679945192336,-34413.10339130204,-20589.868198617485,-28690.87799678779
15810.595847439272,5264.484019814017,-22771.59962315555,-30947.018378617573,-34429.934254876884,-34364.22012617828,-20632.671789249398,-28640.743033974533
15798.056518799845,5267.389746593207,-22748.77849206668,-30934.523753467056,-34353.84891675102,-34368.064626224594,-20601.22288480078,-28684.66421182921
15829.214850570543,5214.237298278487,-22766.346963208554,-30983.809349991006,-34214.552845305545,-34425.35214726355,-20550.707942331785,-28750.69126495019
15839.697818720082,5193.047844534855,-22812.726832953314,-31013.403059649834,-34276.75775012466,-34444.19466783937,-20588.16946603888,-28724.718537893124
15818.061330087345,5245.932071916112,-22808.234132317797,-30965.59267825993,-34431.61063571103,-34387.80121657863,-20650.620240047007,-28665.642877297745
15808.248914271464,5271.703633273081,-22749.583154867072,-30928.868762119862,-34393.27739397018,-34363.951905244816,-20618.03139663117,-28673.287173901463
15830.80182442687,5232.65513570966,-22762.36835269551,-30972.02998066306,-34237.753956050154,-34411.85169361254,-20561.459131414787,-28744.142203824784
15850.203138614075,5212.426806977607,-22806.289530550188,-31003.45653336722,-34251.34381667898,-34436.34920553556,-20577.395925211422,-28733.525125208515
15821.212926055543,5245.37327830473,-22809.37407128502,-30975.47214930918,-34414.33273724708,-34400.54171091816,-20642.75242599874,-28664.748807519532
15810.55114395036,5291.172002693654,-22758.188576482367,-30924.13019229534,-34408.208359266326,-34359.88388775395,-20629.40843455892,-28664.994676708542
15837.194423341087,5260.483057556517,-22755.841643314558,-30948.78416642954,-34248.86277304444,-34393.90324281493,-20558.88868080243,-28727.132526294296
15858.47328406254,5213.633801178194,-22807.1836003284,-31003.90356825633,-34237.552790350055,-34439.34433929257,-20564.364858193978,-28736.87788687681
15841.75417920997,5246.1555893606655,-22807.36241428404,-30975.852128964918,-34380.313382186105,-34394.79731259314,-20621.585323999563,-28666.15696742022
15813.74744340747,5286.724005547047,-22761.250765472745,-30926.700642907697,-34419.808914638634,-34342.762451501185,-20630.3695595705,-28656.210441137606
15814.84267888578,5251.050621396377,-22764.93880330787,-30956.22729733316,-34294.88501487792,-34407.62721391049,-20582.469771202777,-28742.06349159044
15842.335324565807,5206.3024289968525,-22810.64812071897,-31014.09596372795,-34235.65289207135,-34455.97403716732,-20571.36095420849,-28756.279201064015
15840.636591987204,5241.394667791685,-22810.9833968858,-30990.157245416314,-34360.82266102108,-34404.632080153475,-20624.155774611925,-28686.273537429995
15812.026359084412,5294.457709128584,-22765.60935564153,-30935.998968601107,-34423.4746007293,-34359.32509414257,-20638.59500153005,-28651.963609691098
15817.569591709327,5271.547171061894,-22754.1205589915,-30947.89009665133,-34301.27761379214,-34384.26964095469,-20580.860445601993,-28701.29390970396
15844.726961222526,5215.712513412537,-22793.57138795512,-31008.03864098056,-34220.0290226971,-34446.13926960698,-20544.82943354004,-28747.383206770803
15851.1419118812,5231.694010698082,-22812.749184697772,-31007.32338515799,-34341.84602997852,-34409.594167422554,-20601.26758828969,-28684.91008101822
15819.51419347694,5277.0904036868105,-22773.678335389894,-30950.88523040834,-34440.66309221543,-34358.65454180891,-20639.153795141436,-28644.341664831838
15813.65803642965,5271.457764084073,-22749.583154867072,-30945.789032672532,-34343.36594860148,-34377.586469362555,-20591.343413751532,-28703.7749533385
15842.603545499273,5218.305315769353,-22791.202103042855,-31008.03864098056,-34233.68593855929,-34437.39973752496,-20560.654468614397,-28753.37347428483
15850.583118269817,5219.3334960142965,-22818.873562678524,-31017.269911440602,-34314.55454999859,-34440.976016637804,-20608.64366395994,-28703.35027019385
15818.46366148754,5267.300339615386,-22789.23514953079,-30957.523698511566,-34438.830249170096,-34373.83137629407,-20643.400626587943,-28644.229906109562
15803.644454913672,5270.027252438933,-22758.03211427118,-30946.414881517278,-34378.23466995176,-34376.0665507396,-20609.001291871227,-28690.833293298878
15828.365484281241,5220.227565792509,-22780.920300593414,-31000.863731010406,-34244.43712764229,-34432.70587118934,-20559.44747441381,-28757.50854700906
15853.153568882177,5214.237298278487,-22812.95035039787,-31016.778173062587,-34276.422473957835,-34433.39877526746,-20576.680669388854,-28720.67287214671
15828.432539514608,5260.572464534338,-22789.481018719795,-30956.249649077614,-34413.48337095778,-34372.065588482095,-20625.89921067944,-28648.72260674508
15800.403451967652,5282.857153756279,-22746.83389029907,-30925.18072428474,-34380.55925137511,-34351.97137021677,-20597.847771388027,-28661.776025506977
15812.853373629257,5226.307240284353,-22777.858111603036,-30993.80057976253,-34256.81999407053,-34410.510588945224,-20555.625326111953,-28728.92066585072
