Fp1,Fp2,C3,C4,P7,P8,O1,O2
14360.146446245486,5008.154214400556,-24632.985846160158,-32272.141548650452,-36144.82714472141,-35846.587818454245,-22360.171062966714,-32261.613877012
14232.517985405682,5060.7925725928035,-24570.378609940843,-32187.78606507612,-36315.48271363768,-35773.60937280767,-22465.67129679576,-32260.250420600227
14254.355639738518,5066.984005806924,-24539.309685147964,-32177.258393437674,-36106.024516346995,-35747.50253528387,-22287.17026557568,-32155.13016642692
14380.263016255263,5009.830595234704,-24605.58260745795,-32275.38255159647,-35914.4253628761,-35838.65294917261,-22168.504854262454,-32152.783233259113
14366.494341670794,4986.338911812176,-24647.872107967392,-32301.44468563136,-36099.788379643964,-35865.98913264145,-22335.315923132413,-32249.365121050494
14233.769683095179,5037.189130448,-24598.38534574334,-32223.727670160257,-36324.91514979782,-35809.103943002694,-22489.319442429478,-32285.217319156807
14228.494671403727,5062.7818778493265,-24548.987990497113,-32182.04166675111,-36166.26246765405,-35758.96898018944,-22344.36837963681,-32196.167969246864
14359.788818334202,5012.512804569341,-24590.67399390626,-32260.026903155675,-35916.5264268549,-35821.44210594203,-22169.309517062848,-32155.35368387147
14383.883998857022,4982.561466999229,-24645.74869224414,-32306.496179878257,-36043.9090185057,-35879.73545548147,-22294.07695461237,-32248.00166463872
14261.731715408769,5029.164854188544,-24596.552502698007,-32226.074603328063,-36295.45555060572,-35816.61412913968,-22469.359334630888,-32279.00353419823
14221.319761433573,5067.05106104029,-24532.291237389,-32157.432396105814,-36198.44897966969,-35736.617235734135,-22365.893109547273,-32191.831730822534
14341.639201836491,5030.550662344774,-24567.562290139474,-32226.767507406177,-35927.054098493354,-35803.51600688887,-22168.594261240276,-32133.448974305273
14390.254246026785,4986.875353679104,-24634.81868920549,-32297.35431639604,-35986.465035255555,-35861.831708172766,-22242.712645854073,-32205.75686761819
14280.037794117665,5022.124054685122,-24604.912055124292,-32227.728632417755,-36259.08926237694,-35813.77545759385,-22445.867651208362,-32273.52735680668
14204.846525770012,5062.580712149228,-24540.0919962039,-32155.51014608266,-36240.13498307884,-35751.81642196375,-22404.80749664396,-32215.166952033873
14313.230134633797,5037.166778703544,-24551.13375796482,-32204.90750132889,-35957.83245060831,-35785.7463700469,-22192.95766269656,-32143.194334887787
14395.931589118432,4983.075557121701,-24624.872162922882,-32287.407790113426,-35942.54385740088,-35855.52851623637,-22206.949854725583,-32195.94445180231
14300.64610250546,5008.869470223126,-24614.50095349562,-32248.113423360996,-36221.583035180935,-35826.91828333357,-22418.777336928528,-32269.839318971553
14206.165278692875,5060.9043313150805,-24542.14835669379,-32150.346893113485,-36269.37106482638,-35750.60942776316,-22426.399281787788,-32222.252455026206
14277.087363849565,5032.696429812483,-24551.20081319819,-32194.737457601725,-36006.35808782078,-35767.75321576038,-22223.73601481152,-32149.944561713288
14390.455411726882,4982.181487343489,-24616.423203518774,-32278.847071987042,-35917.44284837757,-35840.7093096625,-22181.468866046533,-32172.631582335423
14321.768501015724,4987.814126946227,-24632.248238593133,-32263.089092146052,-36178.06418872645,-35834.09319330373,-22389.22833075861,-32259.311647333107
14206.433499626339,5042.0618107392565,-24562.399037170297,-32173.74916955819,-36299.07653320748,-35769.02726519433,-22452.506119311587,-32235.99877786622
14256.166131039397,5037.3679444036425,-24546.05991197347,-32185.17091097485,-36059.532887879956,-35747.74840447288,-22256.414265205178,-32140.154497641863
14380.687699399914,4983.209667588433,-24611.550523227517,-32269.928725949376,-35909.575034329304,-35822.1573617646,-22170.225938585514,-32147.016483189644
14354.536158387204,4988.775251957804,-24632.002369404123,-32270.688685260855,-36129.33738581388,-35834.11554504818,-22351.744455307064,-32237.76456567819
14230.931011549355,5048.365002675653,-24569.350429695896,-32182.689867340312,-36311.86173103592,-35764.4898610699,-22465.73835202913,-32247.889905916443
14250.77936062567,5063.117154016156,-24534.07937694542,-32164.003808975674,-36117.33449904138,-35738.11480261264,-22298.03321338096,-32161.343951385494
14384.643958168503,5013.965667958935,-24589.981089828147,-32253.94722866383,-35909.46327560703,-35813.171960493564,-22159.87708090271,-32144.26721862164
14376.530274931227,4988.462327535431,-24637.187974117754,-32288.838301758566,-36086.936126582164,-35867.12907160867,-22322.17309739269,-32245.788841937643
14250.220567014287,5042.575900861729,-24582.023868802058,-32204.438114695327,-36316.19796946025,-35793.457721883984,-22477.4059626348,-32275.96369695231
14237.033037785655,5071.901389587091,-24530.458394343663,-32160.382826373916,-36169.235249666606,-35738.80770669076,-22337.48404234458,-32176.587841104014
14364.75090560328,5025.409761120053,-24575.60891814338,-32248.448699527828,-35918.940415256075,-35804.924166789555,-22160.793502425375,-32133.851305705466
14393.249379783796,4991.122185125611,-24634.617523505392,-32303.813970543622,-36034.4542306011,-35859.95416163852,-22269.557090944898,-32218.027975324152
14268.392535256451,5033.56814784624,-24594.317328252477,-32218.0056235797,-36295.075570949986,-35808.03105926884,-22450.91914545526,-32270.24165037175
14213.429595640851,5061.95486330448,-24536.269847902044,-32171.536346857116,-36217.35855547888,-35754.76685223184,-22362.786217067984,-32200.07952452654
14335.783044789201,5027.309659398754,-24563.47192090415,-32244.224219825774,-35942.76737484543,-35798.7997888088,-22161.508758247943,-32141.60736103146
14415.645827728014,5000.778138730305,-24611.483467994152,-32282.82568250009,-35974.75272116098,-35843.793850397335,-22208.33566288181,-32199.27486172615
14302.143669383964,5026.840272765193,-24593.423258474264,-32226.164010305885,-36251.04263437303,-35811.22735872595,-22413.949360126182,-32271.96273469481
14220.917430033378,5069.554456419284,-24529.653731543272,-32165.009637476163,-36247.667520960276,-35750.385910318604,-22383.95331906716,-32227.728632417755
14323.288419638684,5048.767334075848,-24546.48459511812,-32217.737402646235,-35968.293067013394,-35784.96405899096,-22172.327002564314,-32158.013541461652
14413.030673626743,4999.146461385067,-24618.121936097377,-32292.705153549334,-35937.22414222052,-35850.924056878575,-22177.222034600025,-32199.811303593076
14316.158213157441,5009.070635923224,-24620.558276243006,-32260.049254900132,-36214.385773466325,-35830.42750721306,-22384.735630123098,-32272.655638772925
14213.67546482986,5063.340671460709,-24550.127929464332,-32182.689867340312,-36278.60233528642,-35756.17501213253,-22404.986310599605,-32233.47303074277
14287.927959910388,5046.420400908041,-24547.2445544296,-32202.47116118326,-36014.60588152479,-35768.73669251641,-22200.020813944437,-32152.380901858916
14403.70999618888,4998.140632884578,-24610.812915660492,-32289.710019792325,-35914.09008670927,-35851.79577491233,-22151.00343835395,-32179.717085327757
14339.538137857693,5001.1804701305,-24626.079157123466,-32281.19400515485,-36166.843613009885,-35842.89978061912,-22351.833862284882,-32266.821833470087
14218.883421287945,5050.980156776924,-24558.174557468243,-32189.954184288286,-36301.60228033093,-35740.50643926936,-22428.25447657758,-32253.05315888562
14262.335212509062,5048.297947442287,-24539.108519447866,-32207.299137985607,-36063.69031234864,-35746.74257597239,-22237.907020796185,-32162.32742814153
14386.56620819166,4991.591571759173,-24604.219151046178,-32294.403886127937,-35896.81218824532,-35832.19329502503,-22136.60891492473,-32162.17096593034
14358.291251455696,4981.51093500983,-24632.15883161531,-32296.05791521763,-36110.830141404884,-35842.02806258536,-22313.85824845532,-32253.634304241456
14229.679313859859,5034.976307746924,-24569.752761096093,-32208.260262997184,-36303.70334430973,-35767.48499482691,-22440.63734300582,-32267.447682314836
14234.015552284189,5041.055982238768,-24539.08616770341,-32201.912367571877,-36121.00018513205,-35750.5870760187,-22287.058506853406,-32186.824940064544
14370.472952183838,4995.234906105388,-24588.885854349835,-32282.982144711277,-35905.596423816256,-35813.97662329395,-22142.286258016382,-32159.622867062437
14376.060888297665,4974.7383564398715,-24627.330854812964,-32304.708040321835,-36059.108204735305,-35848.59947545522,-22279.145989316225,-32243.33015004756
14244.096189033531,5018.7042377834605,-24578.872272833858,-32226.05225158361,-36296.12610293938,-35785.79107353581,-22443.788938974016,-32278.780016753677
14223.24201145673,5048.610871864662,-24526.32332161943,-32191.295288955607,-36163.51320308605,-35744.105070126665,-22321.100213658836,-32195.78798959112
14349.21644320684,5006.880164966603,-24568.165787239766,-32273.70617076232,-35904.85881624923,-35803.76187607788,-22137.927667847594,-32150.637465791402
14384.621606424047,4971.69851919395,-24626.995578646136,-32315.503932893746,-36007.07334364335,-35854.45563250251,-22239.58340163033,-32230.477896985758
14266.49263697775,5017.94427847198,-24583.38732521383,-32234.14358307643,-36270.376893326866,-35792.78716955032,-22427.91920041075,-32281.551633066138
14207.707549060291,5051.404839921575,-24526.748004764082,-32186.489663897715,-36206.6967733737,-35751.92818068602,-22352.213841940626,-32211.389507220927
14320.159175414941,5015.507938326352,-24562.443740659208,-32255.936533920354,-35946.008377791455,-35790.239070682415,-22163.699229204565,-32149.7880995021
14399.485516486826,4979.767498942316,-24617.227866319165,-32308.932520023885,-35967.957790846565,-35834.65198691511,-22209.788526271408,-32204.08048678404
14291.548942512149,5001.493394552875,-24601.045203333524,-32259.244592099738,-36247.801631427006,-35811.56263489278,-22419.06790960645,-32276.611897541512
14208.758081049691,5049.281424198321,-24529.296103631987,-32181.639335350912,-36254.46245127469,-35742.24987533687,-22393.229293016113,-32223.861780626987
14299.662625749424,5019.799473261771,-24541.94719099369,-32228.46623998478,-35979.02190435194,-35769.49665182789,-22179.21133985655,-32142.277913365117
14401.072490343153,4977.755841941338,-24609.315348781987,-32307.703174078844,-35934.6313398637,-35842.00571084091,-22174.986860154495,-32183.539233629614
14319.466271336827,5000.8004904747595,-24606.07434583597,-32271.023961427687,-36203.43341868322,-35825.01838505488,-22384.400353956265,-32270.219298627297
14208.62397058296,5048.722630586938,-24543.042426472002,-32186.690829597814,-36289.599393558434,-35753.42574756453,-22421.750118941083,-32243.441908769837
14279.479000506282,5037.94908975948,-24535.778109524028,-32215.479876456247,-36027.7040037756,-35767.75321576038,-22218.72922405353,-32159.712274040256
14398.904371130988,4985.981283900891,-24600.464057977686,-32301.556444353635,-35910.02206921841,-35851.0134638564,-22158.759493679943,-32182.443998151306
14350.870472296534,4996.128975883601,-24611.103488338413,-32283.00449645573,-36151.01857793553,-35850.94640862303,-22352.45971112963,-32266.441853814347
14223.398473667918,5048.476761397929,-24549.85970853087,-32197.88905356992,-36298.1154081959,-35766.85914598217,-22437.77631971554,-32254.103690875017
14255.942613594845,5049.616700365151,-24530.078414687923,-32201.442980938315,-36074.352094453825,-35755.437404565506,-22254.313201226378,-32167.669495066348
14390.902446615988,5003.125071898112,-24587.880025849347,-32290.58173782608,-35895.940470211564,-35828.415850212084,-22141.436891727077,-32158.46057635076
14374.183341763419,5000.487566052386,-24613.986863373146,-32296.750819295743,-36097.75437089853,-35850.74524292293,-22310.37137632029,-32245.38651053745
14238.463549430795,5043.022935750835,-24563.226051715144,-32205.958033318286,-36302.965736742706,-35788.763855548365,-22446.001761675092,-32268.475862559782
14238.262383730696,5050.466066654452,-24528.893772231793,-32194.715105857267,-36129.583255002886,-35760.93593370151,-22296.1109633578,-32185.9979255197
14377.044365053698,5003.192127131478,-24578.08996177792,-32279.182348153874,-35901.193130158565,-35823.744335620926,-22142.353313249747,-32151.41977684734
14390.366004749061,4983.522592010808,-24625.78858444555,-32311.01123225823,-36052.335626165346,-35858.34483603774,-22280.576500961364,-32233.38362376495
14266.403229999929,5039.536063615807,-24574.37957219834,-32220.84429512552,-36295.3661436279,-35790.306125915784,-22448.72867449864,-32273.14737715094
14237.413017441395,5069.2415319969095,-24524.915161718745,-32180.924079528344,-36173.37032239084,-35742.07106138123,-22331.449071341645,-32189.440094165817
14359.162969489453,5022.504034340863,-24568.121083750855,-32264.34078983555,-35923.8801507807,-35803.60541386669,-22155.227918056004,-32145.764785500145
14399.910199631477,4982.516763510319,-24631.644741492837,-32319.370784684514,-36016.63989027022,-35868.894859420645,-22252.994448303518,-32232.42249875337
14288.039718632666,5027.823749521226,-24588.707040394194,-32240.446775012828,-36277.931782952764,-35808.27692845785,-22444.16891862976,-32283.16095866692
14221.76679632268,5063.6088923941725,-24533.252362400577,-32190.155349988385,-36229.09322131792,-35752.55402953077,-22379.728839365107,-32209.914292086876
14335.380713389006,5035.937432758503,-24554.553574866484,-32244.00070238122,-35952.02099704993,-35796.13993121862,-22177.937290422597,-32145.87654422242
14411.600161981603,4993.603228760151,-24618.2113430752,-32309.044278746165,-35961.654598910165,-35857.16019358161,-22211.30844489437,-32200.258338482185
14307.105756653042,5018.547775572273,-24606.387270258343,-32255.891830431443,-36243.77831742505,-35826.27008274437,-22423.38179628632,-32281.082246432576
14214.10014797451,5065.329976717231,-24539.935533992713,-32176.99017250421,-36268.54405028153,-35754.05159640928,-22414.083470592916,-32232.578960964558
14302.836573462078,5041.52536887233,-24546.57400209594,-32220.687832914336,-35990.242480068504,-35763.50638431387,-22199.238502888504,-32143.864887221443
14406.168688078964,4990.049301391757,-24616.669072707784,-32308.23961594577,-35932.68673809609,-35848.554771966315,-22186.363898082247,-32185.55089063059
14329.83748076409,5006.142557399578,-24615.238561062644,-32277.528319064182,-36197.62196512485,-35851.684016190055,-22395.01743257254,-32280.54580456565
14210.792089795124,5049.437886409508,-24554.95590626668,-32198.291384970118,-36299.83649251896,-35764.62397153663,-22439.76562497206,-32254.39426355294
14278.272006305697,5049.147313731589,-24538.57207758094,-32214.56345493358,-36041.919713249175,-35757.516116799845,-22233.25785794948,-32154.996055960186
14401.407766509983,5000.822842219215,-24601.648700433816,-32289.262984903216,-35911.56433958582,-35830.09223104623,-22159.988839624984,-32159.6899222958
14360.504074156772,5006.097853910667,-24614.72447094017,-32272.72269400629,-36147.621112778324,-35833.46734445898,-22350.917440762216,-32249.745100706234
14224.739578335237,5049.57199687624,-24556.9452115232,-32193.731629101236,-36307.83841703396,-35766.07683492623,-22448.01341867607,-32247.554629749615
14248.745351880236,5043.984060762413,-24537.56624908045,-32200.07952452654,-36098.22375753209,-35752.95636093096,-22274.832102636352,-32158.706445539767
14383.213446523363,4995.793699716771,-24593.803238130004,-32282.222185399794,-35905.104685438244,-35822.44793444251,-22148.254173785946,-32143.21668663224
14371.70229812888,4986.517725767819,-24624.670997222784,-32291.67697330439,-36095.742713897554,-35853.9638941245,-22311.623074009785,-32235.57409472157
14242.44215994384,5038.574938604229,-24565.95296453869,-32202.38175420544,-36305.111504210414,-35781.141910689104,-22449.91331695477,-32256.964714165297
14235.289601718141,5052.790648077804,-24522.970559951136,-32169.859966022967,-36131.79607770396,-35730.9845961314,-22299.351966303824,-32172.296306168595
14371.501132428783,5006.522537055318,-24572.792598342014,-32250.885039673456,-35893.95116495504,-35812.00966978189,-22137.05594981384,-32141.11562265344
14378.810152865668,4966.982301113881,-24638.73024448517,-32305.758572311235,-36045.18306793965,-35855.30499879181,-22277.84958813782,-32233.316568531583
14248.879462346968,5013.004542947358,-24589.310537494486,-32222.252455026206,-36296.84135876195,-35790.21671893796,-22453.1990233897,-32267.268868359195
14221.498575389216,5053.036517266813,-24525.496307074583,-32167.84830902199,-36184.054456240476,-35734.091488610684,-22337.305228388934,-32173.324486413538
14340.49926286927,5006.544888799774,-24567.33877269492,-32249.365121050494,-35924.50599962545,-35796.251689940895,-22156.613726212232,-32134.208933616752
14395.305740273685,4974.581894228684,-24619.597151231428,-32296.34848789555,-35990.68951495761,-35844.33029226426,-22233.50372713849,-32202.94054781682
14278.20495107233,5015.195013903977,-24585.935424081734,-32229.226199296263,-36262.57613451197,-35797.81631205277,-22430.690816723207,-32262.57500202358
14205.405319381396,5054.534084145318,-24525.697472774682,-32175.09027422551,-36227.3497852504,-35749.469488795934,-22379.304156220456,-32211.165989776375
14315.152384656953,5022.571089574229,-24545.1434904508,-32235.32822553256,-35947.885924325696,-35777.945611232,-22171.030601385904,-32144.02134943263
14398.166763563964,4975.140687840068,-24611.237598805143,-32305.244482188762,-35948.869401081734,-35847.59364695474,-22197.271549376437,-32185.841463308512
14310.771442743713,5010.411740590542,-24592.596243929416,-32244.80536518161,-36221.20305552519,-35825.264254243884,-22397.520827951532,-32253.276676330173
14211.261476428686,5053.349441689186,-24529.94430422119,-32174.486777125214,-36262.44202404523,-35757.18084063302,-22398.86193261885,-32217.84916136851
14292.06303263462,5036.049191480779,-24539.130871192323,-32212.03770781013,-35995.495140015504,-35756.957323188464,-22194.14230515269,-32133.69484349428
14399.686682186924,4989.55756301374,-24607.057822592,-32299.18715944137,-35922.96372925803,-35836.864809616185,-22166.24732807247,-32168.764730544655
14327.26703015173,5000.50991779684,-24613.58453197295,-32273.05797017312,-36190.35764817687,-35841.826896885264,-22378.365382953332,-32271.761568994712
14217.38585440944,5059.272653969843,-24541.120176448843,-32170.105835211976,-36293.75681802712,-35749.58124751822,-22428.76856670005,-32239.060966856596
14278.316709794606,5058.423287680542,-24524.71399601865,-32194.536291901626,-36043.41728012768,-35750.251799851874,-22230.01685500346,-32148.379939601415
14404.46995550036,5009.8976504680695,-24588.39411597182,-32282.311592377617,-35902.06484819232,-35830.47221070197,-22148.991781352972,-32158.438224606303
14373.401030707482,5020.335915128698,-24601.827514389457,-32258.462281043805,-36131.84078119288,-35825.04073679933,-22335.450033599143,-32241.944341891332
14246.0631425456,5073.376604721142,-24539.62260957034,-32174.196204447297,-36300.66350706381,-35750.83294520771,-22437.82102320445,-32236.356405777504
14268.548997467638,5077.534029189829,-24516.779126737016,-32174.6432393364,-36094.51336795251,-35746.54141027229,-22268.35009674431,-32143.775480243625
14397.272693785751,5020.715894784438,-24580.839226345925,-32262.709112490313,-35902.78010401489,-35811.003841281396,-22142.353313249747,-32130.476192292714
14392.824696639145,5008.578897545207,-24615.238561062644,-32278.53414756467,-36090.11007429482,-35836.52953344936,-22306.504524529522,-32227.840391140035
14255.741447894747,5055.80813357927,-24565.81885407196,-32196.547948902604,-36309.06776297901,-35768.46847158295,-22459.010476948082,-32256.875307187478
14248.588889669049,5076.550552433795,-24518.343748848885,-32166.104872954475,-36147.419947078226,-35728.369442030125,-22312.763012977008,-32166.149576443386
14382.878170356533,5035.0880664692,-24565.86355756087,-32250.594466995535,-35906.24462440546,-35796.02817249634,-22145.571964451312,-32126.96696841323
14406.056929356686,5002.901554453559,-24620.58062798746,-32296.460246617826,-36033.62721605626,-35841.37986199616,-22266.78547463244,-32210.964824076276
14276.68503244937,5046.755677074871,-24575.452455932198,-32215.591635178524,-36290.20289065873,-35791.60252709419,-22450.785034988527,-32265.34661833604
14233.479110417262,5080.797383880304,-24522.523525062028,-32161.612172318957,-36198.47133141415,-35736.79604968978,-22356.170100709212,-32188.903652298886
14349.84229205159,5034.149293202078,-24564.00836277108,-32240.513830246193,-35935.503057897455,-35794.55295736229,-22165.95675539455,-32131.951407426764
14411.75662419279,4999.928772441002,-24622.033491377057,-32290.849958759543,-35988.25317481198,-35839.54701895083,-22230.866221292763,-32188.166044731865
14294.901704180445,5032.987002490402,-24598.139476554334,-32234.61296970999,-36266.62180025838,-35815.80946633929,-22441.62081976185,-32268.408807326414
14218.123461976465,5072.236665753921,-24536.76158628006,-32171.961030001767,-36249.4556605167,-35743.41216604855,-22402.840543131893,-32218.67617591336
14317.141689913475,5035.04336298029,-24560.297973191497,-32230.433193496847,-35973.83629963831,-35782.08068395623,-22194.25406387497,-32143.998997688177
14410.817850925667,4994.407891560542,-24619.619502975882,-32294.515644850213,-35955.95490407406,-35847.16896381009,-22206.167543669646,-32179.18064346083
14325.188317917386,5028.47195011043,-24602.520418467575,-32243.464260514294,-36225.22636952715,-35824.43723969904,-22408.942569368195,-32254.99776065323
14219.553973621605,5070.113250030667,-24539.689664803704,-32168.787082289113,-36278.53528005305,-35748.68717774,-22421.638360218807,-32225.336995761038
14288.30793956613,5043.447618895486,-24550.642019586805,-32215.658690411892,-36019.63502402724,-35766.65798028207,-22221.478488621535,-32142.300265109574
14405.632246212035,4997.760653228838,-24612.042261605533,-32293.219243671807,-35928.663424094135,-35846.18548705405,-22181.558273024355,-32167.870660766443
14339.918117513433,5009.696484767972,-24617.138459341346,-32266.71007474781,-36181.50635737257,-35828.52760893436,-22382.589862655386,-32257.27763858767
14222.213831211786,5066.7157848734605,-24551.2455166871,-32179.65003009439,-36301.60228033093,-35756.01854992134,-22449.24276462111,-32242.369025035983
14272.72877368078,5061.887808071114,-24539.175574681234,-32196.346783202505,-36061.56689662539,-35760.33243660122,-22255.4531401936,-32151.620942547437
14396.490382729815,5003.683865509494,-24606.521380725073,-32295.074438461597,-35909.575034329304,-35838.25061777241,-22159.87708090271,-32151.39742510288
14359.967632289843,4998.833536962693,-24630.72831997017,-32287.564252324613,-36136.28877833948,-35851.61696095669,-22345.955353493136,-32244.067757614586
14227.399435925417,5049.884921298614,-24569.68570586273,-32205.376887962448,-36318.544902628055,-35772.53648907381,-22461.96090721618,-32249.90156291742
14238.418845941884,5053.707069600471,-24542.95301949418,-32198.872530325956,-36125.49288576757,-35760.26538136785,-22300.44720178213,-32165.702541554278
14378.698394143392,5014.725627270416,-24593.043278818524,-32278.95883070932,-35914.69358380957,-35820.5033326749,-22159.541804735876,-32137.472288307228
14383.727536645834,5003.169775387022,-24627.241447835142,-32293.174540182896,-36082.21990850209,-35842.07276607428,-22304.73873671755,-32218.854989869
14251.159340281409,5053.036517266813,-24574.088999520423,-32204.304004228594,-36309.96183275722,-35779.10790194367,-22458.898718225806,-32246.638208226945
14231.57921213856,5068.682738385527,-24530.301932132475,-32175.582012603525,-36168.89997349978,-35750.40826206306,-22329.191545151658,-32169.770559045144
14364.8403125811,5023.286345396798,-24574.938365809725,-32259.825737455576,-35919.40980188964,-35816.74823960641,-22156.054932600848,-32130.610302759447
14400.42428975395,4997.715949739927,-24626.34737805693,-32300.550615853146,-36035.23654165704,-35848.554771966315,-22269.98177408955,-32211.814190365578
14271.588834713559,5034.976307746924,-24592.082153806943,-32232.489553986736,-36302.831626275976,-35814.55776864979,-22463.25730839459,-32275.82958648558
14217.184688709342,5064.86059008367,-24538.750891536583,-32175.336143414515,-36231.61896844137,-35754.722148742934,-22384.310946978447,-32202.269995483162
14339.716951813336,5033.791665290793,-24563.851900559894,-32242.27961805816,-35953.80913660635,-35784.51702410186,-22179.479560790012,-32119.993224143178
14411.42134802596,5003.683865509494,-24622.704043710717,-32299.05304897464,-35997.05976212737,-35850.499373733925,-22243.517308654467,-32192.61404187847
14306.010521174732,5046.420400908041,-24591.903339851302,-32227.66157718439,-36266.42063455828,-35801.61610861017,-22440.63734300582,-32259.021074655186
14230.305162704608,5090.72155841846,-24524.33401636291,-32157.275933894627,-36255.96001815319,-35732.25864556535,-22402.728784409617,-32199.677193126347
14317.700483524857,5047.448581152986,-24550.23968818661,-32222.38656549294,-35982.88875614271,-35778.12442518764,-22197.584473798808,-32127.995148658178
14405.587542723126,4994.050263649257,-24622.994616388634,-32307.01027000073,-35954.54674417338,-35848.5100684774,-22204.714680280053,-32169.88231776742
14324.115434183532,5023.129883185611,-24609.49416273763,-32252.9637519078,-36221.49362820311,-35824.9066263326,-22411.87064789184,-32253.679007730367
14214.122499718966,5068.3027587297875,-24540.807252026472,-32167.60243983298,-36282.268021377095,-35755.61621852114,-22426.62279923234,-32215.27871075615
14290.87839017849,5054.578787634228,-24537.00745546907,-32198.626661136946,-36016.59518678131,-35752.486974297404,-22218.505706608976,-32126.877561435413
14404.291141544718,4999.70525499645,-24610.231770304654,-32284.68087728988,-35914.403011131646,-35845.15730680911,-22169.622441485222,-32152.157384414364
14341.169815202931,5003.70621725395,-24624.98392164516,-32266.754778236722,-36170.35283688937,-35829.19816126802,-22376.823112585917,-32248.180478594364
14220.358636421995,5058.66915686955,-24556.162900467265,-32181.66168709537,-36302.116370453405,-35758.45489006697,-22451.701456511197,-32244.313626803596
14261.955232853323,5054.914063801059,-24538.393263625298,-32185.37207667495,-36069.390007184746,-35748.284846339804,-22259.208233262092,-32151.732701269713
14388.063775070164,4996.196031116967,-24601.939273111737,-32272.253307372728,-35904.545891826856,-35819.83278034125,-22153.260964543937,-32140.914456953346
14359.788818334202,4988.976417657902,-24627.308503068507,-32275.851938230033,-36118.98852813107,-35836.55188519381,-22331.89610623075,-32229.248551040717
14219.062235243588,5028.941336743991,-24574.491330920617,-32194.17866399034,-36317.80729506103,-35772.827061751734,-22462.743218272117,-32243.263094814196
14228.807595826102,5037.099723470178,-24540.91901074875,-32187.27197495365,-36134.85826669434,-35753.71632024245,-22303.777611705973,-32155.59955306048
14370.294138228195,4996.665417750528,-24587.34358398242,-32265.72659799178,-35910.35734538524,-35809.394515680615,-22151.115197076226,-32124.910607923342
14375.36798421955,4972.346719783154,-24630.25893333661,-32291.922842493397,-36070.61935312979,-35849.940580122544,-22295.485114513056,-32211.83654211003
14245.571404167582,5022.70520004096,-24583.364973469375,-32208.886111841934,-36313.35929791442,-35793.79299805081,-22460.97743046015,-32250.013321639697
14223.934915534845,5054.489380656407,-24533.27471414503,-32171.022256734643,-36180.79110155,-35760.667712768045,-22335.94177197716,-32166.820128777046
14351.675135096924,5011.7751970023155,-24573.843130331414,-32248.403996038916,-35924.14837171416,-35799.09036148672,-22155.652601200654,-32123.30128232256
14388.130830303531,4977.50997275233,-24635.466889794698,-32299.924767008397,-36028.88864623173,-35860.20003082753,-22262.113960041283,-32208.5508356751
14265.911491621911,5023.442807607986,-24596.731316653648,-32225.918141116876,-36297.646021562345,-35807.62872786864,-22457.82583449195,-32262.172670623386
14210.635627583937,5059.339709203209,-24536.71688279115,-32170.105835211976,-36230.881360874344,-35750.810593463255,-22381.29346147698,-32186.13203598643
14332.02795172071,5022.593441318684,-24562.04140925901,-32232.020167353174,-35954.814965106845,-35781.3430763892,-22178.00434565596,-32117.534532253092
14403.195906066407,4979.164001842022,-24623.955741400212,-32301.958775753832,-35986.889718400205,-35850.70053943402,-22229.860392792274,-32186.199091219794
14298.656797248936,5013.071598180723,-24597.178351542756,-32235.03765285464,-36261.927933922765,-35815.42948668355,-22436.39051155931,-32263.111443890506
14210.657979328393,5055.539912645807,-24529.273751887533,-32160.002846718176,-36267.5605735255,-35752.82225046423,-22413.077642092427,-32205.242777495718
14305.11645139652,5031.400028634075,-24538.885002003313,-32206.986213563232,-35988.02965736743,-35770.1448524171,-22200.82547674483,-32123.368337555927
14403.486478744326,4987.478850779396,-24608.600092959416,-32288.14539768045,-35949.562305159845,-35846.20783879851,-22198.232674388015,-32167.825957277535
14319.175698658908,5003.773272487316,-24608.86831389288,-32255.0648158866,-36220.97953808064,-35837.06597531628,-22404.405165243767,-32248.605161739015
14214.122499718966,5058.33388070272,-24537.63330431382,-32167.8930125109,-36297.37780062888,-35747.41312830605,-22434.49061328061,-32216.508056701194
14286.408041287428,5047.828560808726,-24533.52058333404,-32198.93958555932,-36038.075213202865,-35766.054483181775,-22232.050863748893,-32136.35470108446
14405.833411912134,4997.8053567177485,-24598.564159698984,-32281.95396446633,-35926.495304881966,-35837.982396838954,-22173.355182809257,-32157.700617039278
14353.731495586813,5007.237792877888,-24605.53790396904,-32260.697455489335,-36166.4859850986,-35835.8589811157,-22361.95920252314,-32243.7101297033
14229.47814815976,5067.274578484843,-24535.889868246304,-32173.480948624725,-36306.78788504456,-35766.1438901596,-22440.05619764998,-32238.74804243422
14261.329384008573,5062.737174360415,-24517.449679070676,-32183.22630920724,-36080.498824179034,-35751.07881439672,-22250.893384324718,-32145.563619800047
14387.884961114522,5006.924868455514,-24586.069534548467,-32286.983106968775,-35909.239758162475,-35833.66851015908,-22147.248345285458,-32149.18460240181
14369.221254494341,5000.576973030206,-24617.33962504144,-32289.33004013658,-36113.26648155051,-35854.276818546874,-22316.875733956782,-32242.95017039182
14229.299334204119,5045.459275896464,-24567.092903505913,-32202.962899561277,-36320.37774567339,-35795.4470271405,-22450.74033149962,-32265.078397402576
14237.167148252387,5064.882941828125,-24526.032748941514,-32182.980440018233,-36138.85922895184,-35757.29259935529,-22291.03711736645,-32173.525652113636
14373.535141174216,5018.793644761282,-24572.05499077499,-32256.182403109364,-35907.49632209496,-35814.98245179444,-22132.89852534515,-32142.03204417611
14387.057946569676,4998.006522417846,-24617.183162830253,-32281.641040043956,-36052.78266105445,-35842.69861491902,-22261.26459375198,-32219.749059647213
14259.25067177423,5046.778028819326,-24568.590470384417,-32203.946376317308,-36294.94146048325,-35777.655038554076,-22426.48868876561,-32256.182403109364
14224.136081234943,5071.141430275611,-24522.031786684012,-32172.922155013344,-36179.092368971396,-35738.852410179665,-22313.433565310665,-32181.572280117547
14352.07746649712,5024.918022742036,-24565.841205816414,-32254.841298442043,-35921.980252502,-35804.74535283391,-22132.406786967134,-32145.787137244602
14393.539952461715,4985.869525178615,-24627.666130979793,-32307.077325234095,-36011.76720997896,-35862.8151849288,-22228.72045382505,-32221.76071664819
14271.924110880389,5025.543871586785,-24593.91499685228,-32233.875362142964,-36280.65869577631,-35802.04079175482,-22424.409976531268,-32269.57109803809
14208.691025816326,5062.156029004577,-24534.74992927908,-32177.75013181569,-36232.78125915304,-35742.80866894826,-22363.881452546295,-32213.08823979953
14333.614925577036,5036.965613003446,-24550.23968818661,-32234.680024943358,-35950.85870633825,-35777.92325948754,-22156.457264001045,-32146.07770992252
14407.822717168656,4989.378749058098,-24616.40085177432,-32308.530188623692,-35961.60989542126,-35840.59755094023,-22191.705965007062,-32193.485759912226
14298.25446584874,5011.909307469047,-24608.801258659514,-32263.334961335062,-36248.51688724958,-35821.486809430935,-22407.020319345036,-32275.62842078548
14206.9028862599,5055.226988223432,-24541.544859593494,-32191.22823372224,-36270.443948560234,-35748.2401428509,-22394.972729083627,-32225.828734139057
14299.953198427344,5031.690601311994,-24544.38353113932,-32239.038615112142,-35989.7954451794,-35778.86203275467,-22180.664203246142,-32143.239038376694
14402.927685132943,4984.439013533475,-24613.69629069523,-32314.945139282365,-35931.12211598422,-35850.54407722284,-22168.616612984733,-32187.026105764642
14327.088216196087,5003.9073829540475,-24613.137497083844,-32280.92578422139,-36201.33235470443,-35833.40028922562,-22379.52767366501,-32271.761568994712
14221.185650966841,5060.971386548446,-24536.269847902044,-32190.244756966207,-36288.213585402205,-35745.11089862715,-22414.441098504198,-32236.110536588498
14285.82689593159,5050.801342821282,-24523.775222751527,-32211.747135132213,-36028.19574215361,-35753.44809930898,-22207.888627992706,-32146.435337833806
14412.605990482092,5002.9686096869245,-24585.309575236988,-32294.71681055031,-35897.99683070145,-35828.08057404525,-22134.19492652356,-32152.60441930347
14362.851007324578,4999.548792785263,-24605.984938858146,-32285.463188345813,-36137.16049637324,-35835.63546367115,-22329.549173062944,-32244.15716459241
14227.53354639215,5046.9344910305135,-24547.445720129697,-32201.62179489396,-36303.010440231614,-35772.55884081827,-22431.00374114558,-32248.314589061094
14263.676317176381,5062.156029004577,-24517.762603493047,-32199.811303593076,-36082.28696373546,-35746.9884451614,-22245.059579021883,-32161.053378707576
14385.470972713349,4996.08427239469,-24589.01996481657,-32294.06860996111,-35903.11538018172,-35828.30409148981,-22134.306685245836,-32160.06990195154
14372.685774884912,4987.188278101477,-24619.82066867598,-32301.31057516463,-36101.95649885613,-35849.82882140027,-22304.22464659508,-32244.492440759237
14252.72396239328,5054.534084145318,-24551.044350987002,-32207.99204206372,-36302.65281232033,-35774.61520130816,-22436.323456325943,-32252.38260655196
14252.500444948728,5077.802250123293,-24505.75971672055,-32178.17481496034,-36128.35390905785,-35738.67359622403,-22281.001184106015,-32161.969800230243
14379.257187754774,5021.967592473936,-24565.371819182852,-32269.8169672271,-35900.47787433599,-35806.75700983489,-22125.745967119452,-32136.39940457337
14395.730423418336,4991.278647336799,-24620.312407053996,-32310.519493880212,-36046.03243422895,-35853.5615627243,-22263.83504436434,-32223.347690504517
14263.050468331632,5035.982136247413,-24575.407752443287,-32226.588693450536,-36298.58479482947,-35792.02721023884,-22442.73840698462,-32267.872365459487
14232.070950516576,5077.154049534089,-24512.733460990607,-32173.70446606928,-36188.18952896471,-35741.89224742559,-22336.746434777553,-32189.104817998985
14360.392315434494,5034.66338332455,-24546.99868524059,-32248.113423360996,-35923.45546763605,-35792.049561983295,-22145.639019684677,-32135.77355572862
14416.741063206324,4999.459385807441,-24602.699232423216,-32300.975298997797,-35993.84111092581,-35848.3089027773,-22224.361863656268,-32202.582919905537
14296.980416414788,5035.825674036226,-24573.507854164585,-32229.76264116319,-36268.23112585916,-35803.2030824665,-22423.851182919883,-32265.748949736233
14226.505366147205,5074.427136710541,-24513.42636506872,-32172.542175357605,-36231.708375419184,-35741.378157303116,-22369.53644389349,-32204.862797839978
14335.69363781138,5042.955880517469,-24535.53224033502,-32230.94728361932,-35953.42915695062,-35783.77941653483,-22160.458226258546,-32134.812430717044
14415.668179472468,4994.899629938559,-24603.883874879346,-32299.276566419194,-35954.16676451764,-35850.991112111944,-22190.29780510638,-32197.553777403093
14316.493489324272,5022.191109918489,-24589.556406683496,-32250.70622571781,-36230.255512029595,-35829.533437434846,-22400.895941364284,-32275.226089385284
14219.57632536606,5068.503924429885,-24520.601275038873,-32179.672381838845,-36261.83852694494,-35746.16143061655,-22395.352708739367,-32221.648957925914
14300.176715871898,5044.1405229736,-24531.66538854425,-32224.979367849755,-35996.00923013798,-35778.079721698734,-22192.309462107358,-32148.335236112507
14407.219220068362,4994.9890369163795,-24596.57485444246,-32307.30084267865,-35918.49338036697,-35830.718079890976,-22159.6312117137,-32174.687942825312
14335.090140711087,5005.650819021562,-24602.319252767476,-32274.39907484044,-36179.718217816146,-35834.42846947056,-22363.90380429075,-32261.99385666774
14221.632685855948,5062.938340060513,-24532.42534785573,-32188.70248659879,-36284.86082373391,-35755.75032898788,-22415.089299093404,-32234.992949365733
14277.10971559402,5053.8635318116585,-24520.243647127587,-32208.729649630746,-36037.18114342465,-35754.49863129838,-22218.282189164423,-32148.804622746065
14398.904371130988,4995.6372375055835,-24589.891682850324,-32302.137589709473,-35898.06388593482,-35839.18939103954,-22142.33096150529,-32166.931887499322
14350.401085662972,4991.390406059076,-24622.592284988437,-32304.886854277476,-36140.33444408589,-35859.08244360476,-22339.09336794536,-32260.071606644586
14220.850374800013,5048.499113142385,-24557.839281301414,-32204.48281818424,-36312.68874558077,-35773.65407629658,-22442.693703495708,-32250.415653039894
14250.801712370125,5057.1492382465885,-24523.70816751816,-32194.04455352361,-36097.642612176256,-35748.62012250663,-22265.332611242844,-32157.722968783735
14384.17457153494,5001.158118386044,-24581.82270310196,-32285.329077879083,-35899.13676966867,-35824.68310888804,-22137.257115513938,-32143.730776754714
14375.815019108657,4985.444842033964,-24619.418337275787,-32305.02096474421,-36084.90211783673,-35851.39344351214,-22294.591044734843,-32226.588693450536
14243.49269193324,5037.099723470178,-24564.47774940464,-32222.94535910432,-36305.62559433289,-35770.70364602848,-22440.503232539086,-32247.308760560605
14232.987372039244,5056.501037657385,-24521.94237970619,-32192.859911067477,-36146.92820870021,-35740.193514846986,-22300.40249829322,-32164.696713053792
14361.621661379537,5007.729531255905,-24577.799389100004,-32273.549708551134,-35910.93849074108,-35817.575254151256,-22141.682760916086,-32127.816334702533
14393.13762106152,4986.137746112078,-24623.374596044374,-32308.597243857057,-36037.04703295792,-35856.35553078121,-22263.611526919787,-32209.8025333646
14269.10779107902,5032.942299001491,-24577.017078044068,-32223.861780626987,-36289.86761449189,-35772.22356465144,-22440.25736335008,-32248.38164429446
14225.588944624538,5063.966520305457,-24524.445775085187,-32183.09219874051,-36196.66084011327,-35730.537561242294,-22345.84359477086,-32174.196204447297
14347.428303650417,5022.682848296506,-24564.14247323781,-32258.842260699545,-35933.93843578559,-35791.98250674993,-22159.29593554687,-32122.966006155733
14403.151202577497,4982.047376876757,-24624.20161058922,-32315.705098593844,-35993.952869648085,-35853.226286557474,-22232.02851200444,-32194.916271557366
14294.387614057972,5027.019086720835,-24592.3056712515,-32246.325283804574,-36266.80061421402,-35804.499483644904,-22428.656807977775,-32260.116310133497
14224.76193007969,5073.689529143516,-24524.915161718745,-32176.69959982629,-36240.380852267845,-35741.109936369656,-22381.24875798807,-32203.208768750286
14326.082387695598,5038.597290348684,-24546.61870558485,-32240.580885479558,-35964.873250111734,-35793.34596316171,-22177.15497936666,-32134.58891327249
14411.980141637343,4990.965722914425,-24615.52913374056,-32317.806162572644,-35951.99864530547,-35847.72775742147,-22198.05386043237,-32186.646126108903
14319.153346914452,5015.664400537539,-24601.469886478175,-32269.369932337995,-36223.84056137092,-35822.962024564986,-22404.539275710496,-32267.470034059294
14217.743482320724,5061.5525319042845,-24532.447699600187,-32183.203957462785,-36275.11546315139,-35753.85043070918,-22411.44596474719,-32219.637300924936
14300.668454249913,5042.240624694899,-24536.605124068872,-32222.587731193034,-36009.30851808888,-35776.17982342003,-22205.787564013906,-32137.807564474057
14409.633208469537,4987.076519379201,-24607.191933058733,-32312.508799136736,-35927.81405780483,-35857.85309765972,-22174.159845609647,-32175.55966085907
14351.004582763266,5010.970534201924,-24608.3095202815,-32275.181385896372,-36187.07194174194,-35841.31280676279,-22381.449923688167,-32267.738254992757
14239.29056397564,5074.695357644005,-24530.525449577028,-32175.783178303624,-36293.98033547167,-35747.97192191743,-22432.00956964607,-32234.501210987713
14282.138858096465,5064.055927283279,-24521.1377169058,-32191.51880640016,-36053.94495176613,-35749.35773007366,-22233.81665156086,-32133.471326049726
14407.599199724104,5015.105606926156,-24585.86836884837,-32281.28341213267,-35901.50605458094,-35821.37505070866,-22139.201717281547,-32131.437317304295
14364.549739903181,5004.130900398601,-24615.752651185114,-32283.38447611147,-36129.67266198071,-35846.90074287662,-22330.197373652147,-32233.24951329822
14236.787168596646,5062.37954644913,-24551.469034131653,-32198.55960590358,-36306.20673968873,-35777.11859668715,-22443.47601455164,-32247.778147194167
14263.899834620934,5077.154049534089,-24510.006548167057,-32176.431378892827,-36096.659135420225,-35736.39371828958,-22265.06439030938,-32147.50822156766
14402.99474036631,5030.461255366952,-24562.980182526135,-32258.417577554894,-35881.34478108225,-35806.8017133238,-22123.66725488511,-32126.296416079575
14391.528295460737,5005.807281232748,-24613.897456395323,-32290.78290352618,-36061.6116001143,-35848.04068184384,-22280.3082800279,-32217.893864857422
14252.656907159915,5050.846046310192,-24566.109426749877,-32211.501265943203,-36295.27673665008,-35784.584079335225,-22434.82588944744,-32237.831620911555
14236.071912774076,5075.656482655583,-24519.99777793858,-32175.6937713258,-36152.62790353631,-35736.81840143423,-22302.83883843885,-32157.700617039278
14364.974423047832,5031.489435611897,-24564.47774940464,-32252.29319957414,-35905.48466509398,-35786.394570636105,-22127.24353399796,-32115.70168920776
14399.127888575542,5003.728568998405,-24616.35614828541,-32299.723601308302,-36018.8527129713,-35843.033891085855,-22241.751520842496,-32196.637355880423
14269.10779107902,5044.364040418153,-24578.201720500198,-32230.299083030117,-36280.74810275413,-35793.65888758408,-22432.411901046267,-32257.65761824341
14219.755139321702,5078.428098968041,-24520.847144227882,-32179.292402183106,-36202.561700649465,-35741.17699160302,-22344.636600570277,-32186.75788483118
14340.722780313825,5035.579804847218,-24551.021999242545,-32240.022091868177,-35930.898598539665,-35780.091378699704,-22146.443682485067,-32117.422773530816
14407.733310190835,5000.174641630011,-24610.410584260295,-32299.38832514147,-35976.898488628685,-35847.10190857672,-22210.25791290497,-32185.260317952674
14299.93084668289,5040.072505482734,-24584.214339758677,-32239.932684890355,-36251.37791053986,-35811.60733838169,-22414.57520897093,-32257.456452543316
14214.256610185697,5071.007319808879,-24525.161030907755,-32179.337105672017,-36247.26518956008,-35739.45590727996,-22383.998022556072,-32203.700507128302
14312.73839625578,5038.194958948488,-24543.400054383284,-32234.747080176723,-35972.562250204355,-35773.184689663016,-22177.3337933223,-32129.760936470146
14411.37664453705,4996.419548561519,-24605.515552224584,-32306.40677290044,-35940.10751725525,-35844.62086494218,-22181.334755579803,-32173.816224791557
14327.758768529746,5024.023952963824,-24592.90916835179,-32262.642057256948,-36204.93098556173,-35819.58691115223,-22383.841560344885,-32252.896696674434
14217.76583406518,5064.815886594759,-24533.967618223145,-32180.097064983496,-36272.14268113884,-35757.18084063302,-22409.836639146404,-32220.88899861443
14299.148535626953,5055.539912645807,-24526.72565301963,-32208.729649630746,-36007.98976516602,-35772.02239895134,-22201.697194778586,-32131.347910326473
14412.158955592986,4999.057054407246,-24593.49031370763,-32292.660450060423,-35905.663479049625,-35826.873579844665,-22148.365932508223,-32147.105890167462
14348.054152495164,5003.393292831575,-24608.220113303676,-32275.695476018846,-36165.27899089801,-35831.500390946916,-22355.656010586743,-32243.620722725478
14231.266287716186,5061.61958713765,-24538.773243281037,-32184.030972007633,-36294.69559129424,-35753.26928535334,-22425.371101542845,-32224.778202149657
14276.193294071352,5060.501999914885,-24521.405937839263,-32194.849216324,-36062.84094605934,-35746.94374167249,-22237.12470974025,-32130.543247526082
14408.895600902511,5017.273726138321,-24580.928633323747,-32279.763493509712,-35898.309755123824,-35821.93384432004,-22139.33582774828,-32135.12535513942
14379.123077288043,5010.612906290639,-24614.657415706806,-32286.133740679474,-36116.641594963265,-35844.88908587564,-22321.27902761448,-32234.121231331974
14244.140892522442,5060.367889448153,-24561.124987736344,-32206.56153041858,-36313.62751884789,-35777.520928087346,-22449.86861346586,-32250.48270827326
14263.341041009551,5085.267732771365,-24518.94724594918,-32172.7433410577,-36118.608548475335,-35741.713433469944,-22283.03519285145,-32159.578163573526
14400.044310098208,5038.709049070961,-24574.692496620715,-32258.641094999446,-35904.23296740448,-35811.4508761705,-22137.011246324928,-32127.36929981343
14404.715824689369,5016.714932526938,-24616.91494189679,-32289.48650234777,-36067.914792050695,-35837.937693350046,-22281.3588120173,-32205.42159145136
14271.812352158113,5066.872247084648,-24564.34363893791,-32189.618908121458,-36301.825797775484,-35780.47135835545,-22442.984276173625,-32241.318493046583
14245.0126105562,5089.313398517776,-24516.17562963672,-32161.74628278569,-36169.45876711116,-35744.105070126665,-22318.239190368557,-32167.378922388427
14369.020088794243,5042.0618107392565,-24560.655601102782,-32244.313626803596,-35916.48172336599,-35797.39162890812,-22136.318342246814,-32119.300320065064
14408.023882868754,5008.645952778573,-24614.67976745126,-32294.605051828035,-36014.56117803588,-35834.629635170655,-22232.184974215626,-32186.042629008607
14285.424564531395,5046.778028819326,-24576.123008265855,-32215.56928343407,-36279.675219020275,-35788.65209682609,-22422.979464886128,-32240.42442326837
14231.109825504998,5082.116136803167,-24522.23295238411,-32164.339085142507,-36215.61511941136,-35738.226561334915,-22349.889260517273,-32180.65585859488
14351.026934507721,5050.5778253767285,-24546.43989162921,-32224.33116726055,-35935.97244453102,-35770.882459984125,-22144.00734233944,-32107.342136781474
14418.640961485025,5010.389388846086,-24611.550523227517,-32288.815950014112,-35966.057892567864,-35836.68599566055,-22193.650566774675,-32160.51693684065
14309.944428198867,5041.011278749857,-24593.266796263077,-32236.848144155523,-36249.478012261156,-35809.59568138071,-22408.830810645915,-32239.28448430115
14229.366389437484,5088.329921761742,-24521.450641328174,-32159.22053566224,-36252.18257334025,-35735.79022118929,-22384.534464423,-32189.440094165817
14329.278687152708,5067.498095929396,-24527.552667564472,-32200.727725115747,-35968.91891585814,-35759.93010520102,-22172.081133375304,-32109.1302763379
14418.260981829284,5004.756749243349,-24603.526246968064,-32292.280470404683,-35925.10949672574,-35842.00571084091,-22171.075304874816,-32152.179736158818
14335.31365815564,5022.414627363041,-24603.906226623803,-32262.977333423776,-36201.91350006026,-35831.209818268995,-22386.90374933526,-32243.10663260301
14222.996142267722,5069.2415319969095,-24538.505022347574,-32185.394428419404,-36280.39047484285,-35758.857221467166,-22419.157316584267,-32217.357422990495
14293.851172191045,5058.71386035846,-24529.18434490971,-32196.257376224683,-36016.528131547944,-35757.18084063302,-22209.944988482595,-32129.962102170244
14412.270714315262,5007.528365555807,-24596.507799209096,-32284.926746478886,-35901.41664760312,-35837.80358288331,-22150.399941253658,-32151.777404758624
14356.50311189927,5013.228060391911,-24612.601055216917,-32270.934554449865,-36148.00109243406,-35844.062071330794,-22350.492757617565,-32237.13871683344
14234.216717984285,5070.359119219675,-24545.970504995646,-32185.662649352867,-36291.11931218139,-35770.658942539565,-22434.647075491797,-32227.169838806374
14273.44402950335,5074.00245356589,-24521.249475628076,-32186.333201686528,-36060.62812335827,-35738.67359622403,-22246.266573222467,-32133.024291160622
14403.173554321953,5023.75573203036,-24584.169636269766,-32278.981182453776,-35890.24077537546,-35824.146667021116,-22139.022903325906,-32131.996110915676
14383.928702345933,5018.145444172078,-24607.169581314276,-32276.7683597527,-36090.490053950554,-35845.961969609496,-22306.45982104061,-32218.966748591276
14250.041753058644,5066.38050870663,-24548.38449339682,-32188.210748220772,-36291.767512770595,-35786.03694272482,-22438.40216856029,-32240.267961057183
14246.979564068266,5069.934436075025,-24519.796612238482,-32181.84050105101,-36121.00018513205,-35741.69108172549,-22287.036155108948,-32148.446994834783
14382.632301167525,5020.157101173056,-24573.10552276439,-32263.759644479713,-35899.159121413126,-35809.97566103646,-22137.03359806938,-32121.624901488412
14398.680853686436,4997.023045661813,-24614.210380817698,-32290.358220381528,-36048.71464356359,-35848.73358592195,-22269.17711128916,-32202.359402460985
14265.419753243894,5037.8373310372035,-24568.501063406595,-32209.6013676645,-36292.66158254881,-35794.776474806844,-22438.513927282565,-32242.637245969447
14233.210889483797,5063.474781927441,-24520.869495972336,-32174.71029456977,-36176.276049170025,-35743.345110815186,-22327.783385250972,-32165.590782832
14365.779085848224,5027.935508243502,-24554.821795799948,-32238.412766267393,-35913.50894135344,-35792.98833525042,-22138.575868436797,-32106.78334317009
14410.929609647943,4994.184374115989,-24613.159848828298,-32290.425275614893,-36001.53011101844,-35849.33708302225,-22232.65436084919,-32188.143692987407
14287.927959910388,5035.378639147119,-24581.353316468398,-32224.152353304908,-36273.17086138378,-35797.861015541675,-22429.752043456083,-32248.113423360996
14231.780377838657,5081.311474002776,-24515.639187769793,-32157.36534087245,-36217.89499734581,-35736.99721538988,-22359.65697284424,-32170.731684056722
14346.288364683196,5047.649746853083,-24540.226106670634,-32227.32630101756,-35942.432098678604,-35784.51702410186,-22158.468921002022,-32108.21385481523
14419.356217307595,5000.934600941491,-24610.14236332683,-32293.152188438442,-35960.201735520575,-35848.84534464423,-22200.11022092226,-32166.998942732687
14312.067843922121,5027.957859987958,-24596.798371887016,-32240.87145815748,-36241.81136391299,-35817.642309384624,-22411.982406614115,-32247.57698149407
14223.420825412373,5076.215276266966,-24526.502135575072,-32162.997980475186,-36259.42453854377,-35753.045767908785,-22396.29148200649,-32196.100914013496
14315.711178268335,5052.500075399885,-24534.1911356677,-32202.359402460985,-35984.11810208775,-35767.93202971602,-22185.134552137202,-32110.516084494127
14415.936400405932,5001.694560252972,-24605.58260745795,-32287.206624413328,-35933.35729042975,-35832.72973689195,-22173.332831064803,-32148.379939601415
14336.766521545234,5023.5769180747175,-24606.029642347057,-32254.886001930954,-36203.81339833896,-35827.47707694496,-22381.785199854996,-32239.060966856596
14222.213831211786,5074.225971010444,-24540.315513648453,-32169.681152067325,-36297.19898667324,-35759.058387167264,-22425.885191665315,-32215.61398692298
14288.531457010682,5067.565151162762,-24526.56919080844,-32194.066905268064,-36037.85169575831,-35763.12640465813,-22220.2938461654,-32120.39555554337
14410.594333481115,5014.300944125765,-24588.57292992746,-32273.169728895395,-35907.54102558387,-35819.27398672986,-22145.996647595963,-32129.716232981234
14364.147408502986,5019.821825006226,-24608.644796448327,-32256.89765893193,-36153.410214592244,-35832.34975723622,-22342.334370891378,-32222.47597247076
14233.702627861814,5070.917912831058,-24550.306743419977,-32175.872585281442,-36315.393306659855,-35766.90384947108,-22441.68787499522,-32230.81317315259
14266.738506166757,5076.952883833991,-24525.22808614112,-32178.89007078291,-36089.52892893898,-35752.33051208621,-22255.766064615975,-32137.427584818317
14396.8480106411,5024.6274500641175,-24584.259043247588,-32266.441853814347,-35904.478836593495,-35826.29243448883,-22140.207545782036,-32130.476192292714
14385.068641313153,5014.077426681212,-24612.556351728006,-32276.969525452798,-36095.541548197456,-35846.96779810999,-22306.191600107148,-32222.632434681946
14247.314840235096,5058.512694658362,-24558.867461546357,-32187.339030187017,-36309.42539089029,-35775.978657719934,-22444.951229685692,-32233.67419644287
14242.263345988196,5072.281369242832,-24516.577961036917,-32160.06990195154,-36138.6804149962,-35740.193514846986,-22291.12652434427,-32139.841573219488
14375.479742941827,5022.347572129675,-24565.61768837186,-32244.827716926065,-35899.76261851342,-35802.197253966006,-22127.95878982053,-32106.44806700326
14395.417498995961,4996.777176472804,-24609.3600522709,-32272.946211450842,-36037.96345448059,-35841.89395211863,-22259.07412279536,-32189.395390676906
14262.737543909258,5042.218272950444,-24568.501063406595,-32195.36330644647,-36290.60522205892,-35782.66182931207,-22437.284581337524,-32236.89284764443
14228.092340003532,5074.225971010444,-24515.594484280886,-32153.677303037322,-36181.796930050485,-35733.64445372158,-22331.56083006392,-32158.393521117396
14349.819940307134,5030.573014089228,-24559.135682479824,-32233.875362142964,-35917.21933093302,-35785.947535747,-22145.817833640318,-32104.190540813273
14399.28435078673,4994.251429349355,-24625.699177467726,-32298.00251698524,-35994.28814581491,-35866.52557450838,-22230.419186403655,-32185.439131908315
14280.77540168469,5028.986040232902,-24596.038412575534,-32229.539123718638,-36271.11450089389,-35811.04854477031,-22432.76952895755,-32253.477842030272
14212.870802029467,5067.386337207119,-24533.319417633942,-32161.992151974697,-36234.100012075905,-35742.87572418162,-22376.219615485625,-32189.104817998985
14327.825823763113,5040.676002583027,-24550.798481797992,-32218.542065446625,-35955.91020058515,-35767.864974482654,-22168.482502518,-32111.097229849966
14409.387339280527,4997.045397406268,-24613.383366272854,-32279.361162109515,-35958.12302328623,-35838.38472823915,-22195.4387063311,-32155.93482922731
14306.859887464034,5020.157101173056,-24597.424220731762,-32221.984234092743,-36235.66463418778,-35809.41686742507,-22405.634511188808,-32235.417632510384
14212.557877607094,5069.62151165265,-24529.94430422119,-32150.503355324672,-36268.54405028153,-35736.57253224523,-22404.24870303258,-32199.677193126347
14304.423547318405,5053.528255644829,-24531.575981566428,-32191.56350988907,-35995.629250482234,-35751.95053243048,-22192.622386529732,-32111.231340316695
14410.124946847553,5002.722740497916,-24600.598168444416,-32274.644944029445,-35924.57305485881,-35828.77347812337,-22168.2813368179,-32145.429509333317
14335.157195944454,5010.32233361272,-24608.689499937238,-32253.321379819085,-36193.263374956055,-35832.260350258395,-22382.500455677564,-32241.877286657967
14222.705569589803,5063.161857505066,-24538.28150490302,-32169.234117178217,-36294.18150117177,-35757.13613714411,-22427.941552155204,-32222.431268981847
14282.094154607554,5062.558360404773,-24523.328187862422,-32180.678210339334,-36039.393966125725,-35746.51905852784,-22222.68548282212,-32136.868791206933
14396.356272263083,5001.7392637418825,-24601.603996944905,-32286.29020289066,-35912.659575064135,-35838.29532126133,-22149.77409240891,-32157.052416450075
14356.190187476897,5003.393292831575,-24614.232732562155,-32272.812100984112,-36141.51908654202,-35848.7112341775,-22334.198335909645,-32242.6595977139
14222.280886445153,5052.365964933153,-24556.319362678452,-32191.787027333623,-36313.49340838115,-35771.93299197352,-22439.81032846097,-32248.62751348347
14239.983468053755,5053.349441689186,-24533.453528100676,-32196.100914013496,-36106.449199491646,-35762.09822441319,-22264.170320531168,-32163.98145723122
14375.32328073064,5003.192127131478,-24585.86836884837,-32278.91412722041,-35905.70818253853,-35830.53926593534,-22128.159955520627,-32147.463518078748
14373.17751326293,4993.55852527124,-24616.847886663425,-32293.331002394083,-36088.14312078275,-35864.3127518073,-22283.54928297392,-32236.37875752196
14239.648191886925,5041.972403761435,-24562.04140925901,-32206.09214378502,-36304.75387629913,-35789.0991317152,-22425.885191665315,-32261.323304334084
14227.913526047889,5059.607930136673,-24522.679987273215,-32178.37598066044,-36148.55988604545,-35732.86214266565,-22282.31993702888,-32168.787082289113
14357.039553766199,5011.75284525786,-24571.47384541915,-32263.24555435724,-35907.94335698406,-35806.28762320133,-22113.85483906923,-32130.31973008153
14384.621606424047,4989.378749058098,-24619.21717157569,-32299.745953052756,-36033.98484396754,-35845.49258297594,-22231.000331759493,-32209.46725719777
14259.116561307499,5036.049191480779,-24578.08996177792,-32228.46623998478,-36291.45458834822,-35800.47616964295,-22414.82107815994,-32263.7149409908
14215.24008694173,5065.888770328614,-24524.781051252015,-32177.481910882227,-36200.77356109304,-35747.815459706246,-22324.90001021624,-32188.881300554433
14346.087198983098,5032.85289202367,-24550.887888775815,-32242.369025035983,-35927.72465082701,-35786.685143314025,-22125.433042697077,-32131.45966904875
14409.834374169634,4997.850060206659,-24608.845962148425,-32305.892682777965,-35978.61957295174,-35854.14270808014,-22188.219092872037,-32198.000812292197
14292.48771577927,5026.884976254103,-24582.649717646804,-32245.073586115075,-36258.12813736536,-35810.66856511457,-22394.39158372779,-32265.659542758414
14227.175918480865,5077.556380934284,-24508.59838826637,-32164.7414165427,-36226.813343383474,-35730.537561242294,-22341.037969712972,-32193.865739567966
14333.190242432385,5047.672098597539,-24528.223219898133,-32221.38073699245,-35945.29312196888,-35767.77556750483,-22130.506888688433,-32118.942692153778
14413.209487582386,4991.882144437092,-24605.224979546667,-32310.050107246654,-35941.649787622664,-35852.19810631253,-22159.452397758057,-32179.962954516766
14316.35937885754,5014.144481914578,-24597.513627709584,-32271.180423638874,-36223.77350613755,-35832.08153630275,-22373.403295684257,-32257.948190921332
14218.659903843392,5065.262921483865,-24524.781051252015,-32177.92894577133,-36266.063006647,-35738.67359622403,-22375.70552536315,-32216.37394623446
14301.36135832803,5046.263938696854,-24527.217391397644,-32214.33993748903,-35994.802235937386,-35758.07491041123,-22168.66131647364,-32133.18075337181
14410.571981736659,4989.602266502651,-24598.742973654626,-32305.87033103351,-35914.87239776521,-35851.840478401245,-22137.771205636407,-32165.635486320913
14344.857853038056,5002.633333520095,-24604.085040579444,-32283.049199944642,-36173.88441251331,-35829.30991999029,-22339.830975512385,-32247.018187882688
14222.705569589803,5056.054002768279,-24537.834470013913,-32201.465332682772,-36296.0143442171,-35751.70466324147,-22406.640339689297,-32231.304911530606
14275.9697766268,5058.602101636184,-24518.47785931562,-32206.56153041858,-36049.876934275264,-35752.0399394083,-22209.83322976032,-32140.713291253247
14398.122060075053,5004.309714354243,-24587.231825260144,-32296.795522784654,-35902.40012435915,-35823.878446087656,-22125.634208397176,-32148.26818087914
14359.677059611924,4998.140632884578,-24615.640892462838,-32297.846054774054,-36133.360699815836,-35844.01736784189,-22319.021501424493,-32248.38164429446
14232.763854594692,5053.662366111561,-24548.071568974447,-32203.588748406026,-36309.98418450167,-35772.84941349619,-22432.3448458129,-32262.843222957043
14255.719096150291,5064.100630772189,-24514.208676124654,-32191.541158144613,-36104.81752214641,-35747.256666094865,-22259.297640239914,-32169.94937300079
14390.634225682525,5012.445749335975,-24574.87131057636,-32277.349505108537,-35901.1707784141,-35813.104905260196,-22123.644903140656,-32147.105890167462
14381.067679055654,4989.959894413936,-24623.039319877545,-32305.847979289054,-36084.23156550307,-35848.80064115532,-22283.54928297392,-32238.14454533393
14253.886253104956,5048.432057909019,-24565.707095349684,-32212.015356065676,-36309.33598391247,-35775.285753641816,-22433.842412691407,-32262.15031887893
14239.268212231185,5065.352328461687,-24519.059004671457,-32187.00375402019,-36162.373264118825,-35739.56766600224,-22299.910759915205,-32179.404160905382
14366.807266093168,5015.03855169279,-24566.82468257245,-32268.989952682252,-35917.10757221074,-35806.667602857066,-22130.28337124388,-32142.009692431653
14402.480650243837,4988.79760370226,-24616.91494189679,-32310.92182528041,-36029.87212298776,-35849.42649000007,-22236.700026595598,-32214.630510166946
14282.340023796562,5037.94908975948,-24570.512720407572,-32221.738364903733,-36285.24080338965,-35790.88727127162,-22415.603389215874,-32262.37383632348
14238.463549430795,5076.394090222609,-24508.732498733105,-32168.138881699906,-36194.380962178824,-35735.8349246782,-22318.529763046477,-32184.857986552477
14354.245585709285,5028.539005343796,-24548.85388003038,-32250.169783850884,-35929.19986596106,-35790.864919527165,-22129.56811542131,-32129.31390158104
14418.28333357374,4992.172717115011,-24609.78473541555,-32313.916959037422,-35978.91014562966,-35862.68107446207,-22196.15396215367,-32202.672326883356
14307.888067708978,5026.929679743013,-24580.928633323747,-32245.72178670428,-36254.5071547636,-35820.36922220817,-22400.1359820528,-32275.695476018846
14229.81342432659,5069.956787819479,-24512.95697843516,-32176.096102726,-36238.637416200334,-35739.41120379105,-22357.488853632076,-32205.376887962448
14331.558565087149,5039.6031188491725,-24534.437004856707,-32232.824830153568,-35965.34263674529,-35779.42082636605,-22153.395075010667,-32131.482020793203
14424.742987721324,4996.888935195081,-24598.92178761027,-32298.650717574445,-35939.839296321785,-35840.59755094023,-22160.212357069537,-32172.40806489087
14327.35643712955,5015.262069137343,-24596.887778864835,-32264.43019681337,-36218.297328746004,-35835.07667005977,-22373.917385806726,-32261.43506305636
14230.483976660249,5074.203619265988,-24523.775222751527,-32177.50426262668,-36274.5119660511,-35747.41312830605,-22388.535426680497,-32222.47597247076
14314.682998023392,5064.100630772189,-24513.739289491095,-32202.627623394448,-36001.55246276289,-35749.84946845168,-22174.450418287568,-32131.50437253766
14423.066606887176,5009.763540001338,-24586.449514204207,-32297.711944307324,-35910.67026980761,-35836.28366426035,-22133.457318956534,-32162.75211128618
14357.978327033321,5014.926792970514,-24600.48640972214,-32277.64007778646,-36166.4859850986,-35832.34975723622,-22337.349931877845,-32251.488536773748
14230.931011549355,5059.742040603404,-24536.33690313541,-32192.36817268946,-36298.204815173725,-35757.69493075549,-22411.222447302636,-32235.216466810285
14278.719041194803,5065.151162761589,-24511.95114993467,-32187.65195460939,-36056.537754122946,-35735.94668340048,-22214.48239260702,-32133.18075337181
14405.408728767483,5008.735359756393,-24580.459246690185,-32283.540938322658,-35894.398199844145,-35814.17778899405,-22117.542876904354,-32129.291549836584
14370.22708299483,4998.051225906757,-24612.913979639292,-32293.53216809418,-36116.03809786298,-35839.0105770839,-22304.38110880627,-32233.42832725386
14244.00678205571,5057.059831268768,-24546.95398175168,-32192.18935873382,-36303.05514372053,-35755.23623886541,-22422.39831953029,-32233.696548187323
14259.653003174426,5070.33676747522,-24514.78982148049,-32183.181605718328,-36112.84179840586,-35735.32083455573,-22262.248070508012,-32141.11562265344
14394.411670495472,5019.598307561673,-24573.10552276439,-32274.801406240633,-35902.511883081424,-35809.819198825266,-22128.271714242903,-32130.27502659262
14396.356272263083,4997.671246251017,-24616.40085177432,-32298.561310596626,-36067.31129495041,-35834.89785610412,-22273.98273634705,-32214.33993748903
14265.352698010529,5049.549645131784,-24565.90826104978,-32210.674251398355,-36303.18925418726,-35776.02336120884,-22436.166994114756,-32245.230048326262
14252.075761804077,5082.093785058712,-24511.638225512295,-32168.65297182238,-36161.30038038497,-35722.423878005015,-22309.74552747554,-32161.053378707576
14381.626472667036,5037.636165337106,-24553.43598764372,-32253.410786796903,-35910.46910410751,-35788.65209682609,-22137.011246324928,-32119.36737529843
14411.309589303684,4996.08427239469,-24615.327968040463,-32307.278490934194,-36020.08205891634,-35846.25254228742,-22243.226735976546,-32205.26512924017
14287.302111065641,5036.51857811434,-24574.558386153985,-32228.779164407155,-36283.83264348896,-35787.69097181451,-22430.35554055638,-32259.9151444334
14233.188537739343,5073.778936121337,-24513.359309835352,-32180.454692894782,-36210.63068039783,-35736.10314561166,-22350.537461106476,-32189.484797654724
14351.473969396828,5041.055982238768,-24542.394225882796,-32237.786917422643,-35934.050194507865,-35776.6939135425,-22150.712865676032,-32125.1341253679
14424.675932487957,5004.130900398601,-24602.54277021203,-32294.91797625041,-35965.11911930074,-35835.4566497155,-22201.227808145024,-32185.193262719305
14313.230134633797,5034.909252513558,-24588.081191549445,-32240.402071523917,-36245.924084892766,-35808.81337032478,-22410.4401362467,-32258.90931593291
14229.589906882038,5083.6807589150385,-24523.127022162324,-32172.78804454661,-36249.053329116505,-35746.899038183576,-22383.57333941142,-32209.735478131235
14331.178585431408,5061.57488364874,-24532.04536819999,-32220.352556747504,-35972.562250204355,-35767.48499482691,-22173.86927293173,-32131.571427771025
14428.587487767636,5013.317467369731,-24596.15017129781,-32299.522435608204,-35929.69160433908,-35836.19425728253,-22169.3318688073,-32167.781253788624
14337.906460512455,5024.985077975402,-24596.463095720184,-32262.99968516823,-36203.36636344986,-35816.256501228396,-22379.75119110956,-32253.611952497
14233.836738328546,5078.00341582339,-24527.686778031206,-32178.621849849445,-36277.19417538574,-35749.58124751822,-22406.394470500287,-32225.873437627964
14306.16698338592,5063.4300784385305,-24523.976388451625,-32204.37105946196,-36017.8021809819,-35766.00977969287,-22202.926540723627,-32143.015520932142
14421.814909197677,5009.092987667678,-24589.39994447231,-32288.52537733619,-35905.104685438244,-35829.868713601674,-22143.225031283502,-32155.75601527167
14369.847103339089,5017.720761027427,-24602.431011489753,-32273.259135873217,-36151.24209538008,-35824.28077748785,-22337.595801066855,-32238.636283711945
14246.130197778964,5072.259017498376,-24537.23097291362,-32176.587841104014,-36294.18150117177,-35757.15848888856,-22419.44788926219,-32233.785955165145
14282.898817407944,5073.264845998865,-24516.153277892266,-32184.410951663373,-36066.305466449914,-35741.60167474767,-22236.25299170649,-32149.139898912897
14414.99762713881,5022.191109918489,-24578.469941433665,-32274.600240540534,-35892.587708543266,-35817.41879194007,-22127.265885742414,-32138.478116807717
14391.550647205193,5013.473929580919,-24610.678805193762,-32283.116255178007,-36103.45406573464,-35839.99405383993,-22303.487039028056,-32227.348652762015
14258.043677573643,5064.927645317036,-24556.364066167363,-32204.08048678404,-36305.60324258843,-35783.71236130147,-22439.139776127315,-32255.891830431443
14267.029078844676,5083.0325583258345,-24514.61100752485,-32181.304059184084,-36116.999222874554,-35737.51130551235,-22277.246091037523,-32153.140861170396
14393.897580372999,5027.957859987958,-24575.988897799125,-32271.403941083427,-35902.8248075038,-35809.7521435919,-22135.401920724147,-32123.658910233848
14407.152164834997,5012.177528402511,-24617.361976785898,-32299.097752463553,-36058.10237623482,-35855.819088914286,-22277.089628826336,-32221.648957925914
14268.191369556353,5050.488418398907,-24575.20658674319,-32225.269940527673,-36303.68099256528,-35796.51991087436,-22444.30302909649,-32276.880118474975
14233.233241228252,5068.459220940974,-24532.402996111276,-32188.79189357661,-36187.317810930945,-35760.93593370151,-22328.141013162258,-32187.18256797583
14366.717859115346,5037.61381359265,-24563.494272648608,-32257.612914754503,-35923.29900542486,-35786.953364247485,-22134.843127112763,-32105.106962335944
14410.929609647943,5007.37190334462,-24618.457212264206,-32305.669165333413,-36012.88479720173,-35840.75401315141,-22226.172354957147,-32180.119416727954
14289.514933766715,5044.028764251324,-24584.415505458775,-32237.630455211456,-36279.675219020275,-35796.09522772971,-22421.034863118515,-32246.95113264932
14227.645305114425,5080.171535035555,-24523.819926240438,-32182.71221908477,-36220.75602063609,-35734.940854899985,-22345.933001748683,-32174.687942825312
14334.821919777623,5036.026839736323,-24558.219260957154,-32255.42244379788,-35951.50690692746,-35792.74246606141,-22152.389246510178,-32113.131238595397
14411.242534070318,4993.625580504606,-24621.69821521023,-32326.433935932393,-35972.80811939337,-35863.016350628895,-22200.57960755582,-32179.38180916093
14311.598457288559,5026.415589620542,-24598.608863187896,-32266.039522414154,-36245.74527093712,-35813.70840236049,-22402.594673942887,-32252.986103652252
14221.744444578224,5072.259017498376,-24532.157126922266,-32188.322506943052,-36261.97263741167,-35756.28677085481,-22389.67536564772,-32213.46821945527
14312.961913700334,5050.130790487622,-24536.98510372461,-32226.588693450536,-35986.062703855365,-35773.72113152994,-22176.842054944285,-32129.157439369854
14416.159917850486,5002.231002119899,-24603.883874879346,-32306.40677290044,-35933.3796421742,-35836.41777472708,-22166.44849377257,-32160.762806029656
14341.795664047679,5024.538043086296,-24595.457267219695,-32265.123100891484,-36195.65501161278,-35826.247730999916,-22370.855196816352,-32245.34180704854
14225.834813813546,5068.235703496422,-24528.245571642587,-32181.974611517744,-36277.82002423049,-35753.805727220264,-22403.041708831992,-32217.022146823663
14284.463439519817,5045.772200318837,-24531.06189144396,-32218.072678813063,-36032.37551836676,-35767.28382912682,-22208.380366370722,-32139.372186585926
14411.577810237148,5002.521574797818,-24589.802275872502,-32293.286298905172,-35908.77037152891,-35838.831763128255,-22142.465071972023,-32151.911515225354
14366.382582948518,5013.764502258838,-24595.501970708607,-32266.732426492268,-36143.15076388726,-35837.7588793944,-22327.00107419504,-32235.32822553256
14242.77743611067,5066.469915684452,-24530.391339110298,-32186.891995297912,-36294.002687216125,-35763.93106745852,-22412.85412464787,-32232.087222586542
14277.623805716492,5071.454354697986,-24503.47983878611,-32179.00182950519,-36070.61935312979,-35742.16046835905,-22227.06642473536,-32136.242942362183
14407.867420657567,5022.61579306314,-24566.75762733908,-32263.938458435354,-35889.659630019625,-35818.04464078482,-22115.508868158922,-32126.765802713133
14386.722670402845,5007.148385900067,-24606.901360380813,-32282.356295866528,-36093.39578072975,-35850.6111324562,-22286.83498940885,-32220.598425936514
14253.461569960305,5059.742040603404,-24546.328132906932,-32184.433303407826,-36301.75874254212,-35773.72113152994,-22420.207848573667,-32236.736385433243
14255.137950794453,5078.71867164596,-24504.686832986696,-32166.820128777046,-36129.225627091604,-35750.1400411296,-22268.79713163342,-32150.011616946653
14384.196923279396,5024.8062640197595,-24559.18038596873,-32256.09299613154,-35903.96474647102,-35810.08741975873,-22115.128888503183,-32121.35668055495
14399.641978698013,4997.984170673391,-24608.845962148425,-32295.834397773076,-36047.23942842954,-35864.9162489076,-22249.284058723933,-32208.349669975007
14271.54413122465,5043.872302040137,-24561.259098203078,-32206.628585651946,-36292.125140681885,-35786.50632935838,-22417.43623226121,-32245.677083215367
14233.0097237837,5065.709956372972,-24513.739289491095,-32163.199146175284,-36186.33433417491,-35732.37040428763,-22310.863114698306,-32162.685056052815
14364.862664325556,5028.539005343796,-24546.596353840396,-32235.775260421666,-35921.91319726863,-35793.12244571715,-22122.95199906254,-32108.59383447097
14413.768281193768,4990.205763602944,-24608.73420342615,-32295.16384543942,-35999.13847436172,-35848.80064115532,-22211.30844489437,-32183.583937118525
14294.521724524704,5024.359229130653,-24581.107447279388,-32231.37196676397,-36271.13685263835,-35802.17490222155,-22414.48580199311,-32250.6615222289
14230.081645260054,5062.536008660318,-24521.584751794908,-32174.79970154759,-36230.76960215207,-35749.894171940585,-22359.321696677413,-32193.12813200094
14340.946297758377,5031.8470635231815,-24542.438929371707,-32236.89284764443,-35954.524392428924,-35789.92614626004,-22156.501967489956,-32124.955311412254
14418.640961485025,4991.502164781352,-24608.622444703873,-32300.528264108692,-35961.095805298784,-35855.28264704736,-22190.63308127321,-32179.247698694195
14320.114471926032,5024.895670997581,-24591.031621817547,-32243.128984347462,-36237.36336676638,-35809.126294747155,-22399.24191227459,-32253.76841470819
14228.561726637094,5072.8178111097595,-24524.401071596276,-32173.302134669084,-36268.11936713688,-35750.20709636296,-22397.029089573516,-32215.099896800508
14314.414777089927,5047.649746853083,-24531.2407053996,-32218.385603235438,-35997.64090748321,-35775.352808875185,-22191.124819651228,-32135.751203984168
14419.289162074228,4992.84326944867,-24598.161828298787,-32300.662374575422,-35929.11045898324,-35853.24863830193,-22164.302726304857,-32165.36726538745
14343.136768714998,5005.919039955025,-24602.96745335668,-32265.838356714055,-36198.56073839196,-35835.054318315306,-22372.732743350596,-32255.713016475802
14227.33238069205,5056.992776035402,-24537.47684210263,-32185.305021441585,-36300.23882391916,-35776.26923039785,-22421.258380563067,-32233.920065631875
14285.089288364565,5049.124961987133,-24525.183382652212,-32203.968728061765,-36048.982864497055,-35764.91454421455,-22220.07032872085,-32142.523782554126
14406.928647390443,4996.173679372511,-24590.696345650715,-32288.413618613915,-35915.25237742095,-35840.776364895864,-22142.33096150529,-32151.46448033625
14360.235853223307,4990.921019425514,-24613.58453197295,-32288.592432569556,-36150.906819213254,-35854.90266739162,-22337.148766177746,-32246.280580315663
14230.796901082624,5042.978232261924,-24551.916069020757,-32193.239890723216,-36315.3709549154,-35773.27409664084,-22437.619857504353,-32245.09593785953
14255.674392661382,5047.068601497245,-24531.687740288704,-32196.883225069432,-36111.65715594973,-35764.0428261808,-22265.444369965124,-32156.60538156097
14394.590484451115,5001.873374208614,-24583.946118825213,-32274.801406240633,-35916.03468847689,-35825.554826921805,-22137.167708536115,-32136.26529410664
14376.910254586966,4982.114432110123,-24624.670997222784,-32291.989897726766,-36105.57748145789,-35855.03677785835,-22297.5638267474,-32224.822905638568
14241.838662843546,5032.808188534759,-24570.71388610767,-32205.84627459601,-36325.51864689811,-35782.7959397788,-22447.365218086867,-32252.114385618497
14237.636534885947,5056.6798516130275,-24525.965693708145,-32170.50816661217,-36164.25081065307,-35748.39660506208,-22303.4646872836,-32162.841518264
14367.053135282176,5006.746054499871,-24575.653621632293,-32258.864612444,-35931.792668317874,-35812.23318722644,-22140.72163590451,-32125.648215490368
14395.37279550705,4981.041548376268,-24622.279360566066,-32296.169673939905,-36060.89634429173,-35854.8132604138,-22262.82921586385,-32206.293309485118
14264.302166021129,5020.671191295528,-24581.44272344622,-32223.012414337685,-36315.32625142649,-35800.36441092067,-22444.10186339639,-32254.79659495313
14221.364464922484,5051.136618988111,-24527.19503965319,-32175.44790213679,-36214.8998635888,-35741.13228811411,-22337.886373744772,-32173.905631769376
14341.54979485867,5008.869470223126,-24564.05306625999,-32251.19796409583,-35953.11623252824,-35789.36735264866,-22148.4776912305,-32116.30518630805
14402.011263610277,4977.353510541143,-24617.473735508174,-32300.371801897505,-36014.31530884687,-35847.48188823246,-22221.813764788363,-32181.751094073188
14283.904645908433,5010.5458510572735,-24591.366897984375,-32239.530353490158,-36286.64896329033,-35806.84641681271,-22424.477031764633,-32251.443833284837
14222.683217845348,5064.637072639117,-24519.349577349374,-32174.71029456977,-36254.06011987449,-35745.82615444972,-22370.609327627342,-32190.870605810956
14326.484719095793,5031.5564908452625,-24540.024940970536,-32234.05417609861,-35978.73133167402,-35787.243936925406,-22165.57677573881,-32121.40138404386
14415.154089349997,4991.971551414914,-24598.564159698984,-32293.778037283188,-35965.7896716344,-35839.36820499518,-22185.358069581758,-32168.384750888916
14319.958009714845,5013.60804004765,-24588.505874694096,-32257.121176376484,-36239.687948189734,-35836.708347405,-22396.04561281748,-32252.29319957414
14214.055444485599,5052.812999822259,-24527.172687908733,-32181.61698360646,-36289.19706215824,-35748.73188122891,-22407.556761211963,-32214.541103189124
14298.992073415766,5039.8936915270915,-24524.937513463203,-32211.456562454292,-36019.09858216031,-35761.874706968636,-22198.232674388015,-32125.849381190466
14409.834374169634,4989.266990335821,-24590.87515960636,-32290.872310503997,-35937.49236315398,-35838.65294917261,-22161.352296036755,-32154.146689670884
14345.21548094934,5001.158118386044,-24591.2551392621,-32264.407845068916,-36190.06707549895,-35827.23120775595,-22358.4276268992,-32236.624626710967
14229.656962115403,5057.171589991044,-24525.384548352307,-32180.454692894782,-36300.819969275,-35754.36452083165,-22413.47997349262,-32214.831675867044
14283.234093574774,5055.003470778879,-24515.058042413955,-32198.492550670217,-36061.43278615866,-35755.638570265604,-22221.523192110442,-32129.87269519242
14405.587542723126,5004.108548654145,-24580.48159843464,-32288.52537733619,-35919.789781545376,-35829.15345777911,-22139.38053123719,-32139.618055774936
14367.142542259997,5000.666380008028,-24603.101563823413,-32288.458322102826,-36143.910723198744,-35848.95710336651,-22325.771728249994,-32235.551742977113
14244.833796600557,5056.0316510238235,-24539.46614735915,-32191.585861633524,-36315.01332700412,-35775.95630597547,-22435.697607481197,-32237.94337963383
14259.876520618978,5057.260996968866,-24513.158144135257,-32184.835634808023,-36117.91564439722,-35740.819363691735,-22262.65040190821,-32137.02525341812
14391.75181290529,5008.198917889466,-24569.05985701798,-32275.38255159647,-35919.74507805647,-35813.5519401493,-22129.031673554382,-32114.44999151826
14393.986987350821,4997.22421136191,-24601.313424266988,-32289.8217785146,-36088.52310043849,-35860.58001048327,-22282.476399240066,-32204.259300739683
14261.619956686493,5039.960746760457,-24550.798481797992,-32207.924986830356,-36304.843283276954,-35774.369332119146,-22429.3944155448,-32230.343786519028
14238.687066875347,5053.327089944732,-24517.22616162612,-32190.580033133036,-36163.66966529723,-35753.71632024245,-22298.927283159173,-32153.677303037322
14359.498245656283,5000.196993374467,-24573.53020590904,-32263.402016568427,-35928.64107234968,-35822.403230953605,-22135.290162001867,-32120.26144507664
14392.645882683502,4976.6159029741175,-24622.54758149953,-32302.651679831946,-36042.56791383838,-35851.348740023226,-22250.55810815789,-32199.94541405981
14276.305052793628,5030.014220477846,-24574.714848365173,-32215.658690411892,-36287.87830923538,-35793.54712886181,-22425.43815677621,-32238.680987200856
14230.327514449064,5068.3027587297875,-24519.416632582743,-32163.17679443083,-36203.344011705405,-35732.079831609706,-22332.164327164213,-32155.711311782758
14347.942393772888,5030.28244141131,-24554.777092311037,-32234.09887958752,-35938.453488165556,-35786.260460169375,-22137.48063295849,-32098.22262504371
14412.829507926645,4993.5808770156955,-24616.266741307587,-32294.96267973932,-35988.67785795663,-35855.90849589211,-22205.832267502818,-32168.56356484456
14302.747166484258,5024.649801808572,-24593.982052085645,-32228.91327487389,-36255.22241058617,-35807.38285867964,-22402.19234254269,-32233.495382487225
14220.805671311102,5060.569055148251,-24538.393263625298,-32166.261335165662,-36244.67238720327,-35742.47339278142,-22361.936850778682,-32174.687942825312
14322.059073693643,5033.970479246435,-24556.252307445087,-32221.201923036806,-35975.847956639285,-35784.94170724651,-22158.24540355747,-32100.770723911613
14412.47188001536,4990.451632791953,-24621.608808232406,-32290.089999448064,-35953.65267439517,-35841.71513816299,-22168.504854262454,-32139.21572437474
14324.137785927986,5011.171699902022,-24614.568008728984,-32254.43896704185,-36223.259416015084,-35828.08057404525,-22377.851292830863,-32220.687832914336
14228.986409781744,5065.531142417329,-24541.366045637853,-32162.148614185884,-36272.72382649468,-35742.96513115944,-22387.775467369018,-32180.499396383693
14305.965817685821,5050.130790487622,-24541.56721133795,-32194.111608756975,-36009.755552977986,-35759.751291245375,-22181.133589879704,-32093.50640696364
14412.807156182189,4994.765519471827,-24607.9071888813,-32277.416560341902,-35919.074525722805,-35820.928015819554,-22139.33582774828,-32109.756125182645
14347.9870972618,4998.9229439405135,-24622.72639545517,-32266.039522414154,-36167.08948219889,-35826.02421355536,-22338.84749875635,-32194.446884923804
14225.968924280278,5044.1405229736,-24564.00836277108,-32181.348762672995,-36296.595489572945,-35767.50734657137,-22415.893961893795,-32202.694678627813
14278.741392939257,5043.894653784591,-24539.33203689242,-32186.444960408804,-36060.00227451352,-35760.86887846814,-22226.664093335163,-32119.92616890981
14405.006397367288,4994.921981683014,-24601.469886478175,-32272.67799051738,-35905.14938892715,-35826.13597227764,-22130.775109621896,-32114.002956629152
14381.313548244661,4996.330141583699,-24619.239523320142,-32265.681894502868,-36111.18776931617,-35840.59755094023,-22300.357794804313,-32192.681097111836
14253.394514726939,5045.660441596561,-24561.795540070005,-32179.292402183106,-36293.175672671285,-35751.70466324147,-22413.34586302589,-32184.232137707728
14268.884273634467,5057.886845813614,-24529.56432456545,-32172.7433410577,-36105.733943669075,-35727.251854807364,-22252.681523881143,-32097.529720965595
14400.938379876421,5009.450615578963,-24585.354278725896,-32267.447682314836,-35902.645993548154,-35815.474190172456,-22119.889810072164,-32089.661906917325
14402.57005722166,4987.70236822395,-24628.850773435926,-32280.255231887728,-36066.14900423873,-35844.26323703089,-22269.043000822425,-32181.41581790636
14273.891064392456,5030.885938511603,-24582.113275779877,-32201.219463493762,-36293.6674110493,-35787.243936925406,-22425.86283992086,-32219.637300924936
14252.947479837834,5055.338746945709,-24538.57207758094,-32178.040704493607,-36164.742549031085,-35746.9884451614,-22306.325710573878,-32143.239038376694
14393.741118161812,5035.378639147119,-24568.61282212887,-32240.312664546094,-35916.61583383272,-35805.03592551183,-22136.027769568893,-32104.011726857632
14438.802234983712,5013.60804004765,-24616.98199713016,-32280.657563287925,-36010.58256752283,-35843.21270504149,-22232.96728527156,-32179.38180916093
14317.745187013768,5052.231854466421,-24578.29112747802,-32213.535274688635,-36258.97750365466,-35795.22350969595,-22409.791935657497,-32227.61687369548
14258.691878162846,5079.38922397962,-24524.445775085187,-32155.867773993945,-36189.776502821034,-35740.48408752491,-22330.309132374423,-32156.426567605326
14374.9433010749,5042.866473539648,-24553.52539462154,-32221.09016431453,-35922.40493564665,-35782.46066361197,-22134.641961412664,-32090.824197629
14440.769188495779,5003.661513765039,-24613.048090106022,-32276.544842308147,-35951.30574122736,-35838.3623764947,-22183.547578280875,-32146.03300643361
14332.810262776646,5034.775142046827,-24595.43491547524,-32222.52067595967,-36222.298291003506,-35806.06410575678,-22386.590824912888,-32216.932739845844
14252.232224015264,5077.466973956463,-24534.302894389977,-32158.818204262046,-36223.08060205944,-35757.49376505539,-22363.255603701546,-32172.519823613147
14335.760693044745,5042.084162483712,-24554.084188232922,-32216.284539256638,-35960.78288087641,-35765.27217212584,-22160.6817437031,-32099.20610179974
14429.079226145654,4995.592534016673,-24620.02183437608,-32291.76638028221,-35929.46808689452,-35840.32933000676,-22164.906223405153,-32142.79200348759
14357.955975288865,5026.840272765193,-24604.263854535086,-32237.161068577898,-36182.93686901771,-35812.9037395601,-22359.52286237751,-32212.66355665488
14250.421732714383,5074.449488454997,-24542.28246716052,-32160.718102540744,-36253.098994862914,-35747.457831794956,-22384.690926634186,-32184.969745274753
14322.103777182554,5062.848933082692,-24538.549725836485,-32186.847291809,-36000.50193077349,-35756.10795689916,-22186.20743587106,-32101.106000078442
14434.376589581561,5009.092987667678,-24606.29786328052,-32270.800443983135,-35898.332106868285,-35831.61214966919,-22133.94905733455,-32119.613244487435
14371.523484173238,5010.3670371016315,-24626.548543757028,-32258.171708365884,-36146.10119415536,-35828.37114672317,-22338.355760378334,-32219.771411391666
14248.253613502218,5063.474781927441,-24564.924784293748,-32178.51009112717,-36278.490576564145,-35741.378157303116,-22409.613121701852,-32191.76467558917
14290.945445411855,5065.553494161784,-24542.014246227056,-32176.87841378193,-36055.3084081779,-35733.64445372158,-22226.48527937952,-32106.492770492172
14419.33386556314,5013.51863306983,-24598.25123527661,-32253.164917607897,-35885.613964273216,-35802.42077141056,-22118.727519360487,-32099.899005877855
14396.490382729815,5007.193089388978,-24625.274494323075,-32258.886964188456,-36085.37150447029,-35820.0562977858,-22284.689221941142,-32181.572280117547
14266.962023611311,5058.0880115137115,-24568.0987320064,-32175.179681203328,-36274.221393373184,-35754.94566618749,-22407.981444356614,-32193.530463401137
14268.97368061229,5065.151162761589,-24536.493365346596,-32161.74628278569,-36097.59790868734,-35734.806744433256,-22255.27432623796,-32107.25272980365
14393.875228628545,5009.540022556785,-24594.78671488604,-32254.43896704185,-35891.51482480941,-35799.60445160919,-22118.593408893754,-32087.091456304963
14411.197830581408,4993.916153182525,-24630.527154270072,-32282.646868544445,-36039.43866961464,-35836.61894042718,-22254.804939604397,-32171.581050346023
14283.63642497497,5039.670174082538,-24580.682764134737,-32196.99498379171,-36267.00177991412,-35781.499538600394,-22415.33516828241,-32209.936643831334
14253.215700771298,5063.653595883084,-24534.66052230126,-32156.068939694043,-36149.47630756811,-35735.94668340048,-22305.78926870695,-32139.662759263847
14379.436001710415,5023.643973308083,-24574.916014065268,-32234.09887958752,-35899.89672898015,-35790.104960215685,-22129.702225888042,-32093.21583428572
14423.357179565095,4989.6469699915615,-24628.87312518038,-32282.28924063316,-35990.4436457686,-35836.35071949372,-22222.417261888655,-32162.863870008456
14302.054262406144,5021.22998490691,-24602.58747370094,-32219.346728247016,-36255.781204197556,-35796.85518704119,-22415.938665382706,-32224.889960871933
14243.939726822344,5059.227950480932,-24546.886926518313,-32162.953276986278,-36206.2944419735,-35745.55793351626,-22349.3751703948,-32163.243849664195
14359.006507278265,5029.813054777748,-24569.73040935164,-32225.158181805396,-35936.7324038425,-35785.72401830245,-22147.427159241102,-32093.528758708093
14428.967467423376,4984.863696678126,-24631.82355544848,-32282.490406333258,-35960.38054947621,-35841.42456548507,-22190.34250859529,-32149.050491935075
14328.228155163308,5015.41853134853,-24608.28716853704,-32223.57120794907,-36227.819171883966,-35806.667602857066,-22387.350784224367,-32216.686870656835
14245.236128000752,5065.978177306435,-24535.33107463492,-32152.06797743654,-36233.965901609175,-35731.990424631884,-22361.735685078584,-32162.483890352716
14333.324352899117,5039.156083960067,-24541.90248750478,-32201.75590536069,-35969.209488536064,-35764.735730258915,-22160.413522769635,-32091.897081362855
14432.789615725234,4994.564353771729,-24601.73810741164,-32282.11042667752,-35917.84517977777,-35838.31767300578,-22148.835319141785,-32132.10786963795
14352.479797897317,5014.211537147944,-24598.81002888799,-32250.28154257316,-36175.24786892508,-35814.08838201623,-22347.296458160457,-32211.83654211003
14241.05635178761,5061.5525319042845,-24535.912219990758,-32169.07765496703,-36259.42453854377,-35753.26928535334,-22383.95331906716,-32192.859911067477
14307.016349675221,5055.42815392353,-24526.300969874977,-32196.86087332498,-36010.671974500656,-35765.96507620395,-22182.318232335834,-32117.86980841992
14423.692455731923,5004.063845165235,-24589.981089828147,-32280.09876967654,-35895.96282195602,-35828.57231242327,-22115.575923392287,-32134.052471405565
14374.27274874124,5006.9025167110585,-24602.945101612226,-32271.7168655058,-36128.5774265024,-35837.33419624975,-22299.262559326,-32216.17278053436
14256.412000228405,5064.078279027734,-24536.873345002336,-32175.31379167006,-36270.64511426033,-35757.13613714411,-22383.23806324459,-32214.362289233482
14287.570331999104,5064.301796472287,-24516.063870914444,-32184.299192941096,-36056.537754122946,-35743.72509047092,-22202.457154090065,-32124.35181431196
14415.668179472468,5012.691618524983,-24575.29599372101,-32273.616763784503,-35885.3680950842,-35814.51306516088,-22094.252359181926,-32120.79788694357
14397.116231574564,5005.13672889909,-24610.678805193762,-32285.798464512645,-36080.655286390225,-35851.058167345305,-22265.332611242844,-32225.24758878322
14268.996032356745,5055.159932990066,-24552.98895275461,-32203.879321083943,-36274.288448606545,-35776.29158214231,-22391.441153459687,-32236.736385433243
14267.766686411702,5069.442697697008,-24515.706243003162,-32185.863815052966,-36106.38214425828,-35749.87182019613,-22240.499823153,-32143.753128499167
14394.99281585131,5019.732418028405,-24567.696400606204,-32265.324266591582,-35889.659630019625,-35814.53541690534,-22090.65372832462,-32113.667680462324
14412.717749204368,4995.816051461226,-24611.371709271876,-32299.656546074933,-36027.45813458659,-35847.68305393255,-22217.276360663935,-32197.397315191905
14292.174791356898,5046.867435797148,-24566.712923850173,-32224.19705679382,-36264.47603279067,-35785.276983413336,-22388.535426680497,-32242.413728524894
14258.356601996018,5071.409651209075,-24518.65667327126,-32182.46634989576,-36155.60068554887,-35743.345110815186,-22282.54345447343,-32164.294381653595
14377.871379598544,5028.0919704546895,-24557.235784201122,-32253.969580408288,-35904.747057526954,-35800.163245220574,-22102.455449397024,-32115.12054385192
14427.112272633585,4994.005560160346,-24614.947988384723,-32306.295014178162,-35983.671067198644,-35850.789946411845,-22185.447476559577,-32180.23117545023
14306.748128741758,5024.649801808572,-24589.936386339235,-32251.08620537355,-36248.427480271755,-35807.98635577993,-22385.495589434577,-32246.504097760215
14246.845453601534,5067.229874995933,-24527.105632675368,-32188.680134854334,-36203.768694850056,-35741.22169509193,-22326.107004416826,-32185.841463308512
14362.962766046854,5044.252281695876,-24541.835432271415,-32240.022091868177,-35929.19986596106,-35763.99812269189,-22116.984083292973,-32101.48597973418
14438.265793116785,4999.280571851798,-24607.236636547645,-32304.797447299654,-35938.67700561011,-35836.32836774926,-22154.020923855416,-32159.46640485125
14346.780103061212,5034.015182735346,-24590.763400884083,-32256.271810087183,-36207.3449739629,-35815.675355872554,-22360.61809785582,-32244.53714424815
14253.573328682582,5078.115174545667,-24530.525449577028,-32195.98915529122,-36232.155410308296,-35751.74936673038,-22352.772635552006,-32208.37202171946
14336.833576778601,5054.154104489578,-24538.66148455876,-32230.343786519028,-35971.15409030367,-35764.087529669705,-22150.399941253658,-32122.518971266625
14444.278412375263,5009.495319067874,-24600.53111321105,-32298.516607107715,-35908.882130251186,-35824.54899842131,-22123.46608918501,-32132.7337184827
14373.60219640758,5025.856796009159,-24602.810991145492,-32275.270792874195,-36165.167232175736,-35814.11073376069,-22327.403405595232,-32220.03963232513
14266.000898599732,5078.942189090513,-24533.90056298978,-32188.434265665328,-36258.93280016575,-35747.1896108615,-22377.76188585304,-32204.259300739683
14322.081425438098,5068.056889540779,-24527.731481520117,-32211.85889385449,-36017.53396004844,-35753.2916370978,-22190.63308127321,-32123.614206744936
14435.293011104228,5011.954010957958,-24595.792543386528,-32301.958775753832,-35893.54883355484,-35832.99795782542,-22126.908257831128,-32142.03204417611
14383.36990873455,5007.193089388978,-24619.306578553507,-32299.88006351949,-36125.76110670103,-35843.168001552585,-22318.46270781311,-32237.56339997809
14258.49071246275,5058.065659769257,-24556.252307445087,-32212.216521765775,-36281.59746904343,-35772.134157673616,-22418.06208110596,-32241.206734324307
14280.931863895878,5055.472857412441,-24531.86655424435,-32210.51778918717,-36069.16648974019,-35754.7892039763,-22240.87980280874,-32155.8901257384
14397.965597863866,4994.542002027274,-24602.72158416767,-32308.68665083488,-35894.50995856643,-35830.04752755732,-22129.165784021116,-32155.197221660284
14390.120135560053,4987.277685079299,-24634.68457873876,-32317.53794163918,-36078.0177805445,-35860.44590001654,-22286.387954519745,-32238.61393196749
14264.749200910235,5040.89952002758,-24575.228938487642,-32226.767507406177,-36279.608163786914,-35787.78037879233,-22418.419709017242,-32255.176574608875
14260.837645630556,5060.837276081715,-24531.0395396995,-32201.17476000485,-36121.58133048789,-35744.239180593395,-22273.669811924676,-32164.80847177607
14380.46418195536,5006.880164966603,-24582.42620020225,-32290.939365737366,-35899.11441792422,-35815.898873317106,-22116.71586235951,-32125.804677701555
14404.313493289173,4986.249504834354,-24627.286151324053,-32321.047165518663,-36026.92169271966,-35849.448841744525,-22236.565916128864,-32199.721896615258
14281.043622618154,5028.494301854886,-24583.990822314125,-32240.42442326837,-36271.002742171615,-35797.90571903059,-22413.09999383688,-32251.600295496024
14239.514081420193,5055.137581245611,-24533.073548444936,-32192.12230350045,-36173.72795030212,-35756.01854992134,-22313.433565310665,-32183.06984699605
14357.307774699662,5015.8208627487265,-24567.159958739277,-32266.77712998118,-35916.97346174401,-35809.59568138071,-22126.14829851965,-32126.385823057393
14405.833411912134,4980.616865231617,-24628.73901471365,-32325.450459176358,-35984.78865442141,-35857.562524981804,-22203.01594770145,-32195.005678535188
14290.677224478392,5014.435054592497,-24600.978148100156,-32262.06091190111,-36249.6568262168,-35811.67439361506,-22395.978557584116,-32250.370949550983
14225.72305509127,5058.199770235989,-24536.828641513424,-32199.74424835971,-36217.91734909026,-35749.335378329204,-22341.864984257816,-32185.528538886138
14330.575088331116,5027.466121609941,-24557.39224641231,-32255.265981586694,-35952.7362528725,-35793.03303873933,-22145.303743517845,-32121.40138404386
14417.724539962357,4988.104699624146,-24616.73612794115,-32320.130743995996,-35945.226066735515,-35860.33414129426,-22169.465979274035,-32177.616021348957
14321.433224848894,5008.511842311841,-24608.175409814765,-32277.349505108537,-36215.97274732265,-35824.772515865865,-22370.497568905066,-32251.555592007113
14227.15356673641,5054.690546356505,-24543.824737527935,-32204.505169928692,-36255.64709373082,-35755.41505282105,-22369.201167726656,-32206.76269611868
14304.870582207512,5031.109455956156,-24553.1454149658,-32251.466185029294,-35999.496102273,-35774.90577398608,-22173.19872059807,-32127.21283760224
14406.503964245792,4979.476926264397,-24618.14428784183,-32326.702156865857,-35922.986081002484,-35843.369167252684,-22144.566135950823,-32152.872640236932
14340.678076824914,4994.139670627078,-24620.02183437608,-32296.7731710402,-36169.32465664443,-35835.27783575986,-22341.216783668613,-32233.47303074277
14228.315857448086,5041.346554916687,-24554.28535393302,-32221.179571292352,-36277.998838186126,-35769.0943204277,-22401.43238323121,-32222.207751537295
14284.843419175557,5039.267842682343,-24534.884039745815,-32217.737402646235,-36036.19766666862,-35748.91069518455,-22206.10048843628,-32128.509238780647
14408.739138691324,4990.004597902846,-24596.507799209096,-32303.433990887883,-35894.822882988796,-35826.47124844447,-22127.869382842706,-32135.103003394965
14369.712992872357,4988.08234787969,-24622.815802432993,-32300.662374575422,-36117.24509206356,-35844.084423075255,-22316.629864767776,-32230.589655708034
14250.399380969928,5048.655575353572,-24561.81789181446,-32215.14460028942,-36290.42640810328,-35781.38777987812,-22432.300142323988,-32258.797557210633
14274.82983765958,5061.887808071114,-24530.99483621059,-32210.786010120635,-36088.47839694958,-35765.45098608148,-22260.281116995946,-32169.92702125633
14392.265903027763,5000.398159074564,-24594.92082535277,-32303.009307743232,-35896.655726034136,-35830.82983861325,-22133.658484656633,-32135.0359481616
14390.254246026785,4986.98711240138,-24626.34737805693,-32311.279453191695,-36071.02168452999,-35845.29141727584,-22284.711573685596,-32197.821998336556
14268.526645723183,5042.911177028558,-24569.842168073916,-32229.360309762993,-36282.55859405501,-35789.99320149341,-22428.835621933416,-32230.924931874866
14246.57723266807,5051.784819577315,-24536.20279266868,-32206.27095774066,-36141.8320109644,-35753.24693360888,-22299.910759915205,-32156.068939694043
14377.066716798154,5011.439920835486,-24576.368877454865,-32275.7178277633,-35902.176606914596,-35796.63166959664,-22129.43400495458,-32098.937880866277
14407.286275301729,4984.684882722483,-24627.509668768605,-32324.44463067587,-36017.53396004844,-35861.965818639495,-22241.036265019928,-32184.545062130102
14281.982395885278,5022.191109918489,-24588.237653760632,-32256.025940898176,-36263.64901824582,-35807.76283833538,-22418.4420607617,-32243.307798303107
14245.280831489663,5064.972348805946,-24524.356368107365,-32185.260317952674,-36170.464595611644,-35743.747442215375,-22321.480193314575,-32172.519823613147
14361.398143934983,5026.214423920444,-24557.77222606805,-32254.595429253037,-35908.09981919525,-35785.56755609126,-22128.80815610983,-32108.772648426613
14418.864478929578,4985.444842033964,-24623.464003022196,-32323.34939519756,-35964.33680824481,-35860.40119652763,-22201.563084311856,-32179.60532660548
14312.78309974469,5021.721723284927,-24593.602072429905,-32256.92001067639,-36229.92023586276,-35804.857111556186,-22398.928987852218,-32241.542010491135
14236.429540685362,5056.769258590849,-24533.65469380077,-32192.92696630084,-36213.08937228792,-35742.40633754806,-22355.38778965328,-32183.98626851872
14325.747111528768,5016.558470315751,-24566.131778494335,-32265.614839269503,-35957.11719478574,-35795.78230330734,-22164.459188516044,-32128.26336959164
14416.383435295038,4981.89091466557,-24624.268665822587,-32320.711889351835,-35938.40878467665,-35852.98041736847,-22174.740990965485,-32169.94937300079
14329.12222494152,5009.56237430124,-24615.01504361809,-32273.616763784503,-36206.897939073795,-35827.58883566724,-22377.247795730567,-32238.61393196749
14236.027209285166,5063.877113327636,-24547.177499196234,-32196.145617502407,-36261.39149205584,-35760.13127090112,-22393.028127316014,-32205.220425751264
14319.01923644772,5057.462162668963,-24540.874307259837,-32218.27384451316,-35995.293974315406,-35763.30521861377,-22184.06166840335,-32118.87563692041
14417.679836473446,4995.480775294397,-24617.093755852435,-32311.54767412516,-35912.63722331968,-35837.26714101638,-22149.058836586337,-32147.865849478945
14351.898652541478,5001.828670719704,-24629.141346113844,-32295.454418117337,-36166.553040331964,-35848.08538533275,-22351.90091751825,-32240.357368035005
14237.904755819412,5051.024860265835,-24558.643944101805,-32209.8025333646,-36280.56928879849,-35763.260515124864,-22414.038767104004,-32220.553722447603
14281.580064485082,5037.770275803838,-24546.372836395843,-32226.6557486839,-36047.84292552983,-35760.46654706795,-22225.479450879033,-32131.794945215577
14403.307664788685,4988.372920557609,-24610.63410170485,-32307.122028723006,-35900.50022608045,-35835.79192588233,-22137.458281214032,-32139.998035430675
14373.870417341044,4988.104699624146,-24628.91782866929,-32304.5739298551,-36109.98077511558,-35849.605303955715,-22311.578370520874,-32224.889960871933
14252.679258904369,5044.006412506868,-24563.449569159697,-32220.307853258593,-36280.859861476405,-35769.00491344988,-22425.1922875872,-32232.981292364755
14267.096134078043,5056.56809289075,-24532.24653390009,-32213.490571199727,-36087.204347515624,-35747.8378114507,-22262.851567608308,-32147.619980289935
14379.771277877246,4990.339874069676,-24600.553464955505,-32307.122028723006,-35895.06875217781,-35838.6082456837,-22137.65944691413,-32143.082576165507
14384.80042037969,4974.224266317399,-24637.769119473593,-32334.413508702935,-36065.00906527151,-35865.63150473017,-22290.254806310513,-32242.14550759143
14270.270081790697,5034.216348435444,-24574.42427568725,-32237.116365088987,-36279.31759110899,-35790.68610557152,-22432.478956279632,-32265.123100891484
14245.191424511842,5049.683755598517,-24538.66148455876,-32213.37881247745,-36146.25765636655,-35766.23329713742,-22312.383033321268,-32187.00375402019
14370.27178648374,5006.522537055318,-24582.336793224433,-32288.078342447086,-35906.423438361104,-35828.25938800089,-22141.459243471534,-32126.78815445759
14400.536048476226,4971.676167449495,-24636.91975318429,-32337.296883737672,-36013.44359081311,-35863.642199473645,-22247.339456956324,-32193.70927735678
14290.364300056017,5026.415589620542,-24583.566139169474,-32245.52062100418,-36256.63057048686,-35794.39649515111,-22422.73359569712,-32250.929743162364
14239.983468053755,5064.637072639117,-24529.027882698523,-32190.8482540665,-36181.238136439104,-35745.55793351626,-22335.919420232705,-32179.672381838845
14354.26793745374,5023.845139008181,-24556.878156289837,-32253.477842030272,-35916.48172336599,-35768.93785821651,-22135.267810257414,-32082.934031836277
14422.105481875597,4988.328217068698,-24613.11514533939,-32313.335813681584,-35950.97046506053,-35833.28853050334,-22187.503837049466,-32140.13214589741
14320.114471926032,5026.236775664899,-24587.231825260144,-32257.009417654208,-36218.11851479036,-35802.21960571046,-22390.010641814548,-32220.620777680968
14242.419808199384,5072.259017498376,-24525.04927218548,-32183.762751074166,-36214.8998635888,-35737.62306423463,-22359.791083310974,-32172.631582335423
14332.251469165263,5042.151217717078,-24546.05991197347,-32232.17662956436,-35951.97629356102,-35768.17789890503,-22161.084075103292,-32104.414058257826
14421.479633030849,4990.339874069676,-24614.992691873635,-32314.766325326724,-35923.38841240268,-35845.80550739831,-22168.72837170701,-32155.197221660284
14340.253393680263,5016.893746482581,-24605.359090013397,-32273.929688206877,-36185.75318881908,-35827.14180077813,-22372.553929394955,-32235.28352204365
14237.413017441395,5066.246398239899,-24535.912219990758,-32184.813283063566,-36248.87451516086,-35755.10212839868,-22397.990214585094,-32211.456562454292
14307.083404908588,5048.789685820304,-24532.067719944447,-32209.668422897867,-35989.72838994603,-35758.09726215569,-22191.750668495974,-32121.06610787703
14419.646789985514,4996.553659028252,-24599.81585738848,-32298.851883274543,-35887.15623464063,-35840.35168175121,-22137.81590912532,-32139.819221475034
14362.806303835667,5003.1474236425665,-24615.01504361809,-32282.982144711277,-36134.679452738696,-35837.73652764995,-22337.014655711017,-32231.528428975158
14241.838662843546,5051.561302132762,-24551.647848087294,-32197.553777403093,-36270.75687298261,-35758.25372436687,-22416.25158980508,-32226.342824261526
14283.614073230514,5052.656537611072,-24531.66538854425,-32204.102838528495,-36041.53973359343,-35752.285808597306,-22228.988674758515,-32136.421756317828
14400.536048476226,4989.9375426694805,-24602.051031834013,-32306.00444150024,-35881.881222949174,-35841.29045501834,-22131.37860672219,-32127.92809342481
14375.189170263908,4979.812202431226,-24624.045148378034,-32297.57783384059,-36084.79035911446,-35834.67433865957,-22303.196466350135,-32209.221388008762
14253.10394204902,5041.61477585015,-24562.644906359306,-32206.650937396404,-36273.14850963933,-35759.907753456566,-22424.409976531268,-32215.502228200705
14263.9668898543,5057.350403946687,-24529.273751887533,-32194.916271557366,-36093.86516736331,-35738.45007877947,-22267.299564754914,-32130.27502659262
14397.675025185947,5011.059941179746,-24580.77217111256,-32279.87525223199,-35877.47792929148,-35808.58985288022,-22121.722653117497,-32112.84066591748
14407.174516579453,4991.457461292442,-24621.944084399234,-32304.685688577378,-36029.469791587566,-35832.3050537473,-22258.73884662853,-32191.295288955607
14279.68016620638,5036.496226369885,-24572.077342519446,-32218.206789279797,-36260.29625657752,-35763.17110814704,-22417.592694472398,-32212.350632232505
14250.801712370125,5059.160895247566,-24526.502135575072,-32178.063056238065,-36139.932112685696,-35725.59782571767,-22304.60462625082,-32144.960122699755
14366.51669341525,5008.84711847867,-24577.330002466442,-32266.888888703455,-35898.309755123824,-35795.55878586278,-22134.016112567915,-32109.823180416013
14409.342635791618,4978.068766363713,-24629.58838100295,-32317.046203261165,-35998.17734935014,-35846.85603938771,-22234.82248006135,-32193.485759912226
14296.779250714691,5020.447673850975,-24588.327060738455,-32241.65376921341,-36250.863820417384,-35794.999992251396,-22419.649054962287,-32253.746062963735
14233.38970343944,5049.102610242679,-24535.979275224123,-32192.792855834112,-36192.21284296666,-35742.04870963677,-22349.19635643916,-32182.533405129125
14342.846196037079,5014.189185403488,-24564.500101149097,-32261.725635734278,-35925.645938592665,-35780.4937100999,-22149.81879589782,-32104.190540813273
14409.65556021399,4969.038661603769,-24631.756500215113,-32331.50778192375,-35952.982122061505,-35861.09410060574,-22201.071345933837,-32171.37988464593
14307.150460141953,4995.123147383112,-24614.568008728984,-32276.522490563693,-36225.87457011635,-35812.70257386,-22407.422650745233,-32247.66638847189
14222.325589934062,5037.166778703544,-24545.47876661763,-32192.70344885629,-36233.98825335363,-35746.273189338826,-22386.412010957243,-32197.28555646963
14320.539155070683,5024.180415175011,-24544.85291777288,-32230.477896985758,-35956.44664245208,-35763.72990175842,-22173.95867990955,-32114.807619429546
14419.512679518783,4980.482754764886,-24607.97424411467,-32306.518531622714,-35908.63626106218,-35834.070841559274,-22161.3299442923,-32152.626771047926
14339.716951813336,4999.74995848536,-24604.509723724095,-32265.994818925243,-36170.57635433392,-35809.93095754754,-22365.1778537247,-32235.976426121764
14229.299334204119,5048.365002675653,-24539.86847875935,-32191.429399422337,-36252.38373904035,-35748.12838412862,-22404.47222047713,-32215.591635178524
14294.678186735891,5034.037534479801,-24534.95109497918,-32218.6538241689,-36002.759456963475,-35767.663808782556,-22208.045090203894,-32136.17588712882
14411.868382915067,4982.650873977051,-24596.261930020086,-32297.466075118315,-35887.223289874,-35834.361414237195,-22141.481595215988,-32143.507259310158
14359.185321233908,4982.98615014388,-24613.226904061667,-32284.278545889683,-36126.25284507905,-35822.00089955341,-22331.672588786198,-32219.61494918048
14234.395531939928,5029.298964655276,-24553.167766710256,-32192.412876178372,-36277.41769283029,-35755.21388712095,-22425.63932247631,-32213.71408864428
14273.242863803252,5034.752790302371,-24524.602237296374,-32192.546986645102,-36052.08975697634,-35744.395642804586,-22243.673770865655,-32130.543247526082
14405.252266556296,4988.5293827687965,-24581.040392046023,-32279.137644664963,-35873.1193391227,-35819.29633847432,-22130.931571833084,-32131.45966904875
14389.024900081742,4983.075557121701,-24608.242465048133,-32286.223147657296,-36067.355998439314,-35837.53536194985,-22293.719326701084,-32210.22721650925
14252.589851926548,5027.980211732413,-24557.504005134586,-32207.545007174613,-36272.16503288329,-35777.856204254174,-22429.841450433905,-32231.349615019517
14246.398418712428,5034.104589713167,-24530.123118176834,-32198.8501785815,-36106.918586125204,-35752.486974297404,-22281.69408818413,-32142.054395920564
14370.428248694927,4979.879257664592,-24587.053011304502,-32284.971449967798,-35889.7713887419,-35825.398364710614,-22134.172574779102,-32115.0311368741
14388.71197565937,4964.680071434984,-24628.291979824542,-32306.518531622714,-36031.59320731082,-35843.27976027486,-22263.27625075296,-32195.922100057855
14259.273023518685,5009.472967323419,-24585.398982214807,-32233.361272020495,-36273.12615789487,-35793.56948060626,-22434.468261536153,-32238.278655800663
14230.215755726786,5039.021973493334,-24533.52058333404,-32184.768579574655,-36160.763938518045,-35742.920427670535,-22324.967065449604,-32163.73558804221
14356.056077010166,5000.711083496939,-24570.66918261876,-32253.321379819085,-35901.90838598113,-35792.31778291676,-22136.340693991267,-32113.801790929057
14400.42428975395,4963.160152812023,-24628.604904246917,-32303.188121698873,-35983.26873579845,-35842.609207941205,-22219.86916302075,-32171.35753290147
14292.957102412833,5007.930696956003,-24588.975261327658,-32230.030862096653,-36243.48774474714,-35777.945611232,-22408.696700179185,-32222.632434681946
14234.44023542884,5051.404839921575,-24528.223219898133,-32172.22925093523,-36191.43053191072,-35726.73776468489,-22342.267315658013,-32160.002846718176
14337.101797712065,5015.8208627487265,-24558.688647590716,-32237.89867614492,-35926.227083948506,-35773.89994548559,-22149.729388919997,-32103.8776163909
14416.606952739592,4980.393347787064,-24618.613674475393,-32299.43302863038,-35935.368947430725,-35842.184524796554,-22184.195778870082,-32157.566506572548
14318.59455330307,5004.622638776617,-24604.532075468553,-32254.05898738611,-36209.53544491952,-35809.48392265844,-22392.245816260078,-32229.33795801854
14235.334305207052,5056.389278935108,-24531.732443777615,-32173.123320713443,-36232.37892775285,-35743.03218639281,-22383.57333941142,-32185.640297608414
14318.751015514257,5028.673115810528,-24541.544859593494,-32219.27967301365,-35964.78384313391,-35769.92133497254,-22176.417371799635,-32109.331442037994
14414.863516672078,4975.587722729173,-24612.042261605533,-32307.032621745187,-35911.452580863544,-35852.98041736847,-22163.855691415753,-32152.246791392183
14347.383600161505,4997.8053567177485,-24605.49320048013,-32266.218336369795,-36166.95537173216,-35830.20398976851,-22363.38971416828,-32227.95214986231
14242.509215177204,5051.203674221477,-24534.012321712056,-32171.60340209048,-36256.407053042305,-35741.42286079202,-22401.834714631404,-32189.931832543833
14298.746204226758,5040.072505482734,-24529.05023444298,-32194.156312245887,-36011.7001547456,-35745.11089862715,-22204.558218068865,-32101.955366367743
14422.306647575695,4997.000693917357,-24589.802275872502,-32269.86167071601,-35883.24467936095,-35808.478094157945,-22132.56324917832,-32117.1322008529
14378.072545298643,4999.638199763084,-24603.526246968064,-32259.490461288748,-36110.89719663825,-35815.58594889474,-22315.691091500652,-32205.108667028984
14249.862939103,5048.275595697832,-24543.601220083383,-32177.32544867104,-36270.01926541558,-35748.66482599555,-22413.032938603516,-32203.65580363939
14277.310881294117,5050.8683980546475,-24519.684853516206,-32179.42651264984,-36062.21509721459,-35734.91850315553,-22240.477471408543,-32114.740564196178
14400.290179287218,4991.0551298922455,-24582.470903691163,-32271.761568994712,-35877.18735661356,-35819.83278034125,-22120.158031005627,-32108.0797443485
14391.46124022737,4986.6518362345505,-24613.42806976176,-32280.210528398817,-36062.952704781615,-35834.495524703925,-22278.341326515834,-32194.13396050143
14268.101962578532,5042.173569461533,-24549.971467253148,-32182.734570829223,-36266.44298630273,-35758.76781448934,-22416.788031672007,-32214.27288225566
14268.325480023084,5063.541837160807,-24503.010452152546,-32157.566506572548,-36095.58625168636,-35720.07694483721,-22266.98664033254,-32126.40817480185
14396.445679240906,5015.865566237637,-24555.648810344795,-32247.24170532724,-35867.486699519955,-35796.43050389654,-22104.93649303156,-32095.182787797785
14417.791595195724,4991.502164781352,-24601.53694171154,-32281.842205744055,-36003.22884359704,-35832.28270200285,-22229.25689569198,-32177.32544867104
14289.82785818909,5036.47387462543,-24557.839281301414,-32204.48281818424,-36253.389567540835,-35780.27019265535,-22408.316720523446,-32221.581902692546
14248.208910013309,5062.0219185378455,-24510.23006561161,-32159.958143229265,-36157.031197194,-35740.685253225005,-22311.444260054144,-32147.150593656374
14373.579844663125,5023.621621563629,-24542.975371238634,-32232.131926075454,-35898.175644657094,-35775.777492019835,-22124.561324663322,-32089.818369128512
14428.676894745458,4986.763594956827,-24600.9557963557,-32285.932574979375,-35966.124947801225,-35843.12329806367,-22204.424107602135,-32161.053378707576
14315.93469571289,5025.7450372868825,-24569.126912251344,-32221.33603350354,-36233.6529771868,-35796.00582075189,-22402.415859987243,-32222.453620726305
14243.224470999774,5063.184209249522,-24511.50411504556,-32160.27106765164,-36200.3935814373,-35737.89128516809,-22351.43153088469,-32162.573297330535
14344.857853038056,5028.069618710234,-24540.784900282015,-32226.27576902816,-35936.26301720894,-35780.6948758,-22151.986915109985,-32099.139046566375
14427.42519705596,4984.41666178902,-24604.44266849073,-32296.750819295743,-35938.74406084348,-35845.02319634237,-22181.737086979996,-32159.309942640062
14328.339913885584,5008.4894905673855,-24591.411601473286,-32250.460356528805,-36212.30706123198,-35819.877483830154,-22391.687022648697,-32239.843277912532
14231.9591917943,5055.830485323726,-24522.679987273215,-32170.262297423164,-36249.03097737205,-35752.8893056976,-22392.469333704634,-32195.206844235283
14317.298152124662,5036.160950203055,-24524.535182063006,-32207.343841474518,-35980.541822974905,-35770.256611139375,-22180.798313712876,-32111.276043805607
14423.200717353908,4989.89283918057,-24593.53501719654,-32291.900490748943,-35908.56920582881,-35843.32446376377,-22147.71773191902,-32135.907666195355
14354.111475242553,5007.908345211547,-24596.44074397573,-32263.80434796862,-36167.49181359909,-35839.90464686211,-22353.063208229927,-32223.7053184158
14237.927107563866,5056.925720802035,-24533.319417633942,-32177.660724837868,-36271.38272182736,-35768.915506472054,-22408.71905192364,-32205.689812384822
14290.654872733936,5049.035555009313,-24524.132850662812,-32194.60334713499,-36028.285149131436,-35753.76102373136,-22211.934293739116,-32118.607415986946
14419.736196963335,5005.650819021562,-24580.168674012268,-32272.700342261833,-35884.42932181708,-35824.23607399894,-22123.66725488511,-32117.154552597352
14384.755716890779,5010.590554546185,-24598.0053660876,-32267.894717203944,-36106.89623438075,-35835.411946226595,-22304.78344020646,-32194.60334713499
14261.977584597778,5068.4815726854295,-24533.09590018939,-32186.154387730887,-36275.22722187367,-35761.785299990814,-22412.3400345254,-32198.71606811477
14281.803581929635,5071.543761675806,-24506.027937654013,-32165.859003765465,-36071.513422908,-35741.869895681135,-22242.131500498235,-32117.087497363987
14405.386377023027,5015.642048793084,-24568.61282212887,-32255.556554264615,-35883.62465901669,-35808.81337032478,-22119.6215891387,-32107.83387515949
14406.056929356686,5011.998714446869,-24596.373688742366,-32270.509871305214,-36057.58828611235,-35841.29045501834,-22271.70285841261,-32190.71414359977
14272.080573091576,5059.250302225388,-24544.20471718368,-32183.427474907337,-36275.696608507234,-35778.146776932095,-22421.90658115227,-32222.09599281502
14260.122389807986,5077.176401278544,-24503.189266108187,-32159.399349617885,-36127.549246257455,-35736.8854566676,-22289.092515598837,-32145.518916311135
14388.019071581253,5027.019086720835,-24550.105577719878,-32240.983216879755,-35884.74224623945,-35794.06121898427,-22119.33101646078,-32100.50250297815
14409.767318936269,4997.604191017651,-24605.560255713495,-32289.128874436487,-36009.01794541096,-35850.208801056004,-22238.10818649628,-32173.41389339136
14278.763744683713,5036.049191480779,-24570.847996574405,-32215.591635178524,-36268.43229155926,-35800.61028010968,-22427.449813777188,-32229.449716740815
14237.077741274565,5068.794497107804,-24511.615873767838,-32161.902744996878,-36175.76195904755,-35739.18768634649,-22330.309132374423,-32158.728797284224
14354.871434554034,5025.677982053517,-24547.736292807615,-32237.18342032235,-35911.743153541465,-35789.14383520411,-22137.212412025026,-32102.11182857893
14406.235743312329,4978.94048439747,-24614.165677328787,-32298.695421063356,-35973.679837427124,-35853.5615627243,-22211.82253501684,-32159.064073451053
14298.992073415766,5021.185281418,-24580.928633323747,-32227.9074463734,-36243.62185521387,-35807.20404472399,-22413.167049070245,-32223.37004224897
14234.395531939928,5073.8236396102475,-24508.330167332908,-32160.829861263024,-36215.45865720018,-35732.66097696555,-22364.57435662441,-32163.75793978667
14337.325315156617,5043.022935750835,-24529.51962107654,-32214.13877178893,-35940.77806958891,-35772.96117221846,-22154.602069211254,-32093.39464824136
14423.04425514272,4992.7538624708495,-24598.787677143537,-32286.96075522432,-35931.83737180679,-35855.8637924032,-22176.70794447755,-32152.06797743654
14338.889937268488,5021.654668051561,-24581.01804030157,-32235.685853443847,-36197.57726163593,-35814.46836167197,-22382.72397312212,-32226.722803917266
14239.759950609203,5071.230837253433,-24513.51577204654,-32161.209840918764,-36247.48870700463,-35746.87668643912,-22391.441153459687,-32187.964879031766
14307.373977586507,5046.576863119229,-24523.350539606876,-32207.656765896892,-35992.65646846968,-35769.07196868324,-22191.571854540332,-32111.901892650356
14415.981103894843,4997.917115440026,-24587.276528749055,-32282.557461566626,-35902.46717959252,-35839.99405383993,-22146.309572018334,-32128.620997502923
14349.238794951296,5005.181432388,-24598.988842843635,-32262.19502236784,-36159.80281350647,-35832.5062194474,-22350.872737273305,-32212.685908399333
14241.413979698895,5065.642901139606,-24525.362196607854,-32163.243849664195,-36274.84724221793,-35753.31398884225,-22414.86578164885,-32198.89488207041
14296.421622803406,5065.061755783768,-24504.418612053232,-32172.095140468497,-36026.4523060861,-35739.210038090954,-22209.185029171113,-32101.553034967546
14417.523374262259,5006.231964377399,-24574.491330920617,-32268.475862559782,-35882.64118226065,-35810.82502732576,-22119.778051349887,-32105.531645480594
14385.247455268796,5007.103682411156,-24597.513627709584,-32264.89958344693,-36101.33065001138,-35832.0591845583,-22304.090536128348,-32195.296251213105
14257.730753151269,5061.641938882106,-24536.158089179768,-32172.22925093523,-36283.34090511095,-35761.20415463497,-22423.739424197607,-32207.23208275224
14279.367241784006,5074.494191943907,-24500.060021884445,-32155.018407704643,-36084.41037945871,-35726.11191584014,-22255.319029726867,-32111.8795409059
14407.71095844638,5026.8626245096475,-24556.028790000535,-32240.60323722401,-35877.16500486911,-35789.970849748956,-22111.887885557164,-32077.480206189182
14395.953940862888,4998.2747433513105,-24611.21524706069,-32274.28731611816,-36061.343379180835,-35837.7588793944,-22274.49682646952,-32180.119416727954
