Fp1,Fp2,C3,C4,P7,P8,O1,O2
15926.288476739941,5280.957255477579,-22553.84892867195,-30715.610768271777,-33789.69088669907,-34136.16527750078,-20484.457371766257,-28497.848331671757
15918.979456303055,5337.618927671781,-22531.36307374991,-30662.771244379433,-33877.26502147496,-34072.97689592563,-20500.036537651606,-28399.366545601675
15889.47515362205,5331.427494457662,-22520.74599513364,-30654.992837308986,-33850.08530021731,-34084.89037572031,-20503.076374897526,-28492.215692069018
15896.918284525667,5278.498563587495,-22545.444672756752,-30701.596224498302,-33762.55586893033,-34153.040844564544,-20488.59244449049,-28599.437010221125
15920.052340036911,5275.95046471959,-22559.258050830133,-30709.061707146375,-33780.10198832774,-34140.74738511412,-20479.316470541533,-28518.277826103906
15912.832726577846,5321.168043752676,-22542.449538999743,-30676.472863730534,-33874.6945708626,-34085.31505886496,-20498.986005662206,-28401.512313069383
15892.850267034803,5332.634488658248,-22520.097794544436,-30667.487462459503,-33873.17465223964,-34089.24896588909,-20516.085090170516,-28475.764808149914
15897.924113026156,5289.585028837327,-22527.272704514588,-30698.332869807826,-33770.04370332285,-34146.13415552785,-20490.224121835723,-28593.22322526255
15914.263238222986,5265.020461680944,-22566.321202078012,-30733.961550469587,-33772.74826440195,-34162.36152200241,-20482.333956043,-28546.686893306603
15928.367188974285,5320.072808274366,-22543.969457622705,-30692.83434067182,-33861.574096867334,-34096.04389620351,-20490.112363113447,-28416.510333598893
15910.664607365681,5348.951262110622,-22506.105602515414,-30652.60120065227,-33873.15230049519,-34067.65718074527,-20498.717784728742,-28444.472365912483
15903.467345651074,5304.784215066936,-22516.186239264756,-30683.26779404495,-33784.54998547435,-34128.61038787489,-20488.234816579203,-28581.04152453441
15927.160194773698,5283.304188645386,-22550.965553637216,-30716.862465961276,-33750.88825832466,-34151.83385036395,-20460.272784265613,-28567.11638773875
15933.373979732274,5322.017410041977,-22546.584611723974,-30692.901395905188,-33839.7364425345,-34104.49285560761,-20471.47100823772,-28439.599685621226
15905.836630563335,5345.844369631335,-22515.292169486544,-30657.675046643624,-33889.536129180924,-34068.12656737883,-20492.280482325612,-28445.791118835346
15897.655892092693,5316.876508817257,-22512.45349794072,-30673.813006140354,-33801.35849730474,-34112.18185570024,-20470.91221462634,-28571.27381220744
15918.86769758078,5282.410118867174,-22533.665303428807,-30712.07919264784,-33740.7629180864,-34142.22260024817,-20447.174662014804,-28587.635289148726
15928.255430252007,5310.327447691852,-22545.958762879225,-30704.300785577394,-33825.20780863855,-34103.77759978505,-20461.502130210654,-28468.791063879857
15903.556752628894,5339.071791061377,-22530.111376060413,-30675.467035230045,-33897.80627462939,-34065.64552374429,-20482.15514208736,-28436.269275697385
15890.793906544914,5313.926078549156,-22508.094907771934,-30684.899471390185,-33812.31085208784,-34096.89326249281,-20455.444807463267,-28543.87057350523
15906.350720685807,5271.457764084073,-22543.85769890043,-30728.373614355758,-33742.61811287619,-34145.977693316665,-20445.23006024719,-28599.928748599144
15923.226287749565,5288.266275914464,-22566.500016033653,-30723.567989297866,-33810.2321398535,-34108.11383820937,-20446.258240492134,-28484.951375121043
15910.217572476575,5334.310869492397,-22532.435957483765,-30681.16673006615,-33880.93070756563,-34050.133413092306,-20446.347647469956,-28409.268368395373
15896.76182231448,5327.694753133625,-22507.670224627283,-30681.613764955255,-33825.25251212746,-34085.56092805397,-20445.341818969468,-28520.848276716268
15905.143726485221,5276.241037397509,-22537.46509998621,-30731.413451601682,-33750.150650757634,-34148.74930962912,-20439.016275288617,-28616.89372264072
15920.186450503643,5281.359586877774,-22560.64385898636,-30737.09079469333,-33798.76569494792,-34120.78727731553,-20440.022103789106,-28519.26130285994
15906.350720685807,5330.823997357368,-22543.79064366706,-30699.74102970851,-33889.536129180924,-34069.06534064595,-20457.2776505086,-28420.511295856395
15884.691880308616,5329.169968267675,-22517.192067765245,-30689.77215168144,-33857.394320654195,-34087.57258505495,-20457.94820284226,-28509.448887044062
15898.19233395962,5288.601552081293,-22533.620599939895,-30733.447460347114,-33763.986380575465,-34143.876629337865,-20449.90157483835,-28624.29215005543
15926.266124995485,5287.1263369472435,-22550.98790538167,-30746.61263783129,-33772.033008579376,-34131.13613499834,-20445.498281180655,-28553.101843965276
15922.801604604914,5330.9804595685555,-22531.564239450006,-30713.84498045981,-33862.73638757901,-34076.37436108284,-20456.562394686032,-28437.096290242232
15896.426546147652,5338.803570127913,-22508.519590916585,-30690.59916622629,-33859.920067777646,-34072.32869533643,-20464.407856989845,-28489.73464843448
15900.651025849704,5293.340121905819,-22523.09292830145,-30727.41248934418,-33768.83670912227,-34130.443230920224,-20452.76259812863,-28613.451553994604
15920.34291271483,5268.1720576491425,-22560.21917584171,-30764.404626417712,-33771.22834577899,-34143.04961479302,-20453.790778373575,-28579.678068122634
15927.651933151716,5318.843462329324,-22539.812033154016,-30724.618521287266,-33853.326303163325,-34075.70380874918,-20462.843234877975,-28446.215801979997
15901.410985161185,5341.463427718095,-22515.44863169773,-30696.477675018035,-33875.074550518344,-34061.13047136432,-20477.349517029466,-28468.29932550184
15892.917322268167,5297.855174285791,-22527.9656085927,-30728.239503889028,-33786.986325619975,-34125.54819888451,-20469.414647747835,-28603.728545156548
15908.496488153516,5263.455839569073,-22562.052018887047,-30767.198594474627,-33761.684150896566,-34147.587018917446,-20463.625545933908,-28603.14739980071
15918.308903969397,5303.890145288724,-22555.94999265075,-30739.169506927672,-33838.97648322302,-34091.46178859017,-20461.43507497729,-28457.59283990775
15889.497505366506,5333.930889836656,-22534.000579595635,-30703.585529754822,-33883.59056515581,-34064.103253376874,-20478.15417982986,-28448.652142125626
15882.344947140808,5297.743415563514,-22533.710006917718,-30729.424146345158,-33805.98530840699,-34113.120628967365,-20473.370906516422,-28578.627536133237
15900.449860149607,5262.114734901755,-22559.347457807955,-30768.27147820848,-33749.56950540179,-34150.939780585744,-20459.82574937651,-28605.874312624255
15912.676264366659,5292.267238171964,-22572.60204226995,-30752.580553600856,-33829.99108195199,-34116.74161156912,-20476.2319298067,-28488.25943330043
15899.891066538225,5336.568395682382,-22539.230887798178,-30706.40184955619,-33893.537091438426,-34066.561945266956,-20490.045307880082,-28438.996188520934
15884.356604141785,5307.019389512467,-22529.574934193486,-30715.45430606059,-33824.69371851608,-34102.302384651,-20476.18722631779,-28557.32632366733
15905.143726485221,5263.053508168878,-22552.28430656008,-30760.001332760017,-33748.72013911249,-34156.0136265771,-20458.70816215374,-28619.017138363975
15923.650970894216,5287.685130558626,-22557.13463510688,-30746.813803531386,-33803.012526394436,-34116.38398365784,-20468.565281458534,-28501.60342474025
15904.339063684829,5329.169968267675,-22538.426224997787,-30713.17442812615,-33888.86557684727,-34071.90401219178,-20487.00547063416,-28428.37910990466
15888.983415244034,5322.285630975442,-22522.757652134616,-30708.391154812714,-33843.692701303095,-34102.79412302901,-20488.59244449049,-28540.897791492676
15900.71808108307,5270.943673961601,-22551.61375422642,-30748.668998321176,-33758.756072372926,-34153.35376898691,-20475.136694328394,-28625.588551233835
15923.516860427484,5278.789136265414,-22564.35424856594,-30757.8108618034,-33792.03781986688,-34127.6045593744,-20468.699391925264,-28525.65390177416
15908.094156753321,5325.325468221363,-22557.492263018165,-30721.89160846372,-33886.71980937956,-34071.32286683594,-20481.171665331327,-28426.859191281703
15890.793906544914,5328.678229889659,-22518.488468943655,-30706.6477187452,-33861.90937303416,-34092.10998917937,-20480.612871719943,-28510.58882601128
15903.020310761967,5287.148688691698,-22530.580762693975,-30739.661245305688,-33755.5150694269,-34141.95437931471,-20465.279575023604,-28622.41460352118
15918.755938858503,5271.413060595162,-22564.13073112139,-30765.075178751373,-33774.625810936195,-34143.78722236004,-20463.178511044804,-28556.387550400206
15917.973627802567,5323.380866453751,-22547.344571035454,-30729.22298064506,-33867.117329492256,-34079.615364028854,-20475.62843270641,-28430.43547039455
15891.732679812038,5333.3273927363625,-22524.299922502032,-30706.737125723022,-33872.772320839445,-34080.62119252935,-20490.67115672483,-28490.673421701602
15894.86192403578,5289.786194537424,-22533.151213306333,-30739.37067262777,-33777.486834226474,-34141.44028919224,-20472.543891971578,-28616.46903949607
15918.130090013754,5270.362528605763,-22559.83919618597,-30766.03630376295,-33759.13605202866,-34147.00587356161,-20459.468121465223,-28576.7946930879
15925.662627895194,5320.028104785455,-22554.51948100561,-30730.74289926802,-33847.2913321604,-34085.67268677625,-20473.259147794146,-28444.42766242357
15899.198162460109,5344.033878330455,-22522.4670794567,-30694.13074185023,-33880.12604476524,-34072.015770914055,-20493.73334571521,-28470.69096215856
15895.845400791814,5307.667590101671,-22522.556486434518,-30713.50970429298,-33791.188453577575,-34117.389812158326,-20479.987022875193,-28592.5973764178
15912.162174244188,5270.295473372397,-22560.599155497453,-30754.413396646192,-33754.03985429285,-34152.30323699752,-20471.314546026533,-28590.250443249995
15912.63156087775,5301.185584209631,-22571.842082958472,-30739.616541816777,-33847.22427692703,-34105.34222189691,-20488.905368912863,-28465.706523145025
15887.61995883226,5337.283651504952,-22541.153137821333,-30702.870273932254,-33899.683821163635,-34075.94967793819,-20506.07150865454,-28454.754168361924
15882.47905760754,5313.434340171139,-22530.379596993876,-30712.950910681597,-33821.184494636596,-34116.71925982467,-20504.52923828712,-28575.78886458741
15910.217572476575,5283.661816556671,-22557.335800806977,-30744.757443041497,-33750.351816457725,-34145.26243749409,-20474.644955950374,-28598.43118172064
15919.135918514243,5302.236116199031,-22575.440713815777,-30741.695254051123,-33820.491590558486,-34115.199341201704,-20475.471970495222,-28478.71523841801
15895.174848458153,5341.575186440371,-22554.921812405802,-30704.300785577394,-33896.1522455397,-34074.519166293045,-20502.651691752875,-28437.498621642426
15885.563598342373,5326.554814166405,-22530.60311443843,-30702.780866954432,-33828.18059065111,-34102.280032906536,-20495.230912593714,-28549.88319276371
15909.994055032023,5283.639464812215,-22551.61375422642,-30746.813803531386,-33756.655008394126,-34154.85133586542,-20482.266900809635,-28612.177504560652
15921.549906915416,5295.485889373528,-22566.142388122367,-30743.572800585367,-33805.8288461958,-34127.04576576302,-20483.1833223323,-28504.7773724529
15901.43333690564,5338.177721283165,-22551.83727167097,-30701.797390198397,-33884.41757970066,-34075.368532582346,-20493.509828270653,-28424.802830791814
15886.278854164942,5329.639354901237,-22523.45055621273,-30697.908186663175,-33838.77531752292,-34105.923367252755,-20484.2338543217,-28528.06789017533
15896.962988014579,5281.158421177676,-22542.22602155519,-30738.387195871735,-33749.25658097942,-34156.594771932934,-20468.542929714076,-28615.37380401776
15915.805508590402,5283.23713341202,-22569.584556768485,-30744.869201763777,-33787.5227674869,-34138.981597302154,-20482.333956043,-28528.783145997902
15916.029026034956,5341.977517840567,-22542.538945977565,-30691.739105193512,-33879.2990302204,-34075.301477348985,-20495.052098638072,-28419.32665340026
15900.67337759416,5352.080506334366,-22514.375747963877,-30673.656543929166,-33849.30298916137,-34080.196509384696,-20486.357270044955,-28485.331354776783
15904.204953218097,5301.81143305438,-22535.18522205177,-30719.209399129082,-33762.95820033052,-34142.58022815946,-20479.003546119162,-28609.785867903935
15923.67332263867,5290.9484852491005,-22560.442693286266,-30735.03443420344,-33769.931944600576,-34136.8581815789,-20473.505016983156,-28545.345788639283
15920.275857481463,5336.568395682382,-22554.2736118166,-30701.953852409584,-33875.38747494072,-34085.67268677625,-20494.940339915793,-28432.603589606715
15898.885238037736,5352.438134245651,-22522.64589341234,-30673.388322995703,-33875.52158540745,-34080.15180589579,-20492.48164802571,-28471.406217981126
15901.790964816924,5303.644276099715,-22525.238695769156,-30711.56510252537,-33777.71035167103,-34143.451946193214,-20477.19305481828,-28593.960832829576
15932.032875064955,5282.767746778459,-22547.344571035454,-30736.755518526497,-33758.0184648059,-34135.29355946703,-20460.60806043244,-28557.88511727871
15922.309866226897,5310.305095947397,-22557.536966507076,-30716.37072758326,-33855.494422375494,-34088.66782053326,-20486.200807833768,-28440.15847923261
15901.768613072469,5343.430381230161,-22528.636160926362,-30678.68568643161,-33897.69451590711,-34077.35783783887,-20514.118136658446,-28467.964049335013
15895.398365902707,5306.214726712075,-22521.818878867492,-30702.624404743245,-33801.805532193845,-34128.67744310826,-20495.52148527163,-28585.98126005903
15916.744281857525,5276.822182753347,-22552.485472260174,-30741.449384862113,-33751.7152728695,-34155.208963776706,-20469.034668092092,-28585.064838536364
15934.20099427712,5324.453750187606,-22546.74107393516,-30711.11806763626,-33830.57222730783,-34090.85829148988,-20477.90831064085,-28447.623961880683
15914.48675566754,5364.105744851321,-22517.616750909896,-30672.9412881066,-33884.88696633422,-34055.87781141732,-20497.15316261687,-28428.312054671296
15899.533438626939,5326.599517655315,-22510.486544428655,-30692.65552671618,-33801.31379381583,-34103.86700676286,-20479.584691475,-28551.64898057568
15909.994055032023,5273.692938529603,-22552.194899582257,-30749.94304775513,-33744.3168454548,-34155.43248122126,-20469.995793103673,-28596.866559608767
15914.643217878727,5293.585991094827,-22563.50488227664,-30744.80214653041,-33822.25737837045,-34121.860161049386,-20481.350479286968,-28486.515997232917
15904.897857296213,5347.587805698849,-22523.003521323626,-30683.6924771896,-33880.1483965097,-34066.02550340003,-20487.363098545444,-28425.160458703096
15890.659796078182,5329.013506056489,-22509.614826394896,-30691.090904604305,-33816.64709051217,-34098.83786426042,-20482.535121743098,-28539.087300191797
15903.020310761967,5277.80565950938,-22542.94127737776,-30742.812841273888,-33746.26144722241,-34151.69973989722,-20471.202787304257,-28607.483638225036
15912.765671344481,5283.013615967467,-22566.36590556692,-30745.65151281971,-33802.6772502276,-34127.13517274084,-20474.287328039092,-28497.133075849186
15903.601456117805,5337.350706738318,-22536.45927148572,-30694.17544533914,-33879.25432673148,-34070.29468659099,-20483.29508105458,-28408.03902245033
15890.548037355906,5332.433322958151,-22512.58760840745,-30685.63707895721,-33835.60136981027,-34090.70182927869,-20485.843179922485,-28506.341994564773
15899.66754909367,5281.985435722522,-22533.106509817426,-30727.434841088634,-33746.44026117805,-34144.74834737162,-20475.136694328394,-28609.495295226014
15919.20297374761,5281.42664211114,-22558.140463607368,-30737.47077434907,-33776.34689525925,-34127.112820996386,-20475.919005384327,-28520.87062846072
15901.343929927818,5326.7559798665025,-22547.45632975773,-30703.384364054724,-33873.75579759548,-34079.86123321787,-20495.119153871437,-28413.738717286436
15880.556807584384,5332.410971213695,-22523.674073657283,-30684.161863823163,-33858.8918875327,-34086.67851527673,-20501.847028952485,-28489.242910056462
15886.748240798503,5279.884371743724,-22537.621562197397,-30724.17148639816,-33779.654953438636,-34143.89898108232,-20491.229950336212,-28609.13766731473
15916.364302201786,5275.682243786126,-22553.46894901621,-30736.442594104126,-33773.50822371343,-34137.99812054612,-20486.804304934063,-28549.123233452232
15919.605305147805,5325.6383926437375,-22546.294039046057,-30697.908186663175,-33856.43319564262,-34081.02352392954,-20493.554531759564,-28423.14880170212
15892.269121678964,5340.368192239785,-22518.711986388207,-30677.054009086372,-33868.39137892621,-34077.26843086105,-20499.25422659567,-28470.40038948064
15886.211798931576,5291.641389327216,-22530.804280138527,-30710.26870134696,-33777.59859294875,-34135.628835633855,-20489.330052057514,-28599.302899754395
15922.287514482441,5282.343063633807,-22541.4213587548,-30723.52328580896,-33740.87467680868,-34135.002986789106,-20462.329144755502,-28550.799614286378
15919.38178770325,5315.960087294589,-22542.248373299644,-30701.819741942854,-33830.54987556337,-34079.637715773315,-20471.023973348616,-28419.751336544912
15892.626749590248,5342.53631145195,-22518.577875921474,-30673.34361950679,-33877.22031798605,-34077.06726516095,-20497.935473672806,-28445.835822324258
15890.570389100361,5310.483909903039,-22511.827649095972,-30693.50489300548,-33780.81724415031,-34127.17987622975,-20485.53025550011,-28575.31947795385
15912.944485300122,5273.9835112075225,-22544.930582634282,-30733.84979174731,-33737.09723199573,-34146.5588386725,-20469.258185536648,-28580.52743441194
15919.225325492065,5304.940677278123,-22553.290135060568,-30708.413506557168,-33819.06107891334,-34094.9486607252,-20477.86360715194,-28441.119604244188
15904.003787518,5346.671384176181,-22510.88887582885,-30662.6371339127,-33865.95503878058,-34058.04593062949,-20487.54191250109,-28411.838819007735
15902.170944472666,5328.05238104491,-22494.393288420833,-30672.15897705066,-33792.28368905588,-34103.531730596034,-20480.47876125321,-28544.11644269424
15912.117470755276,5279.035005454422,-22537.375693008387,-30723.567989297866,-33735.957293028514,-34156.81828937749,-20476.18722631779,-28597.067725308865
15922.220459249076,5297.47519463005,-22552.686637960272,-30718.60590202879,-33803.54896826136,-34106.23629167513,-20487.631319478907,-28468.835767368768
15903.757918328993,5338.62475617227,-22527.3174080035,-30669.521471204935,-33878.360256953274,-34066.427834800226,-20495.81205794955,-28408.754278272903
15884.267197163965,5317.792930339924,-22505.010367037103,-30677.5904509533,-33814.09899164426,-34110.12549521035,-20489.44181077979,-28525.139811651687
15897.879409537247,5269.177886149631,-22539.45440524273,-30724.37265209826,-33735.42085116159,-34153.733748642655,-20477.4836274962,-28605.13670505723
15913.726796356059,5276.956293220079,-22560.50974851963,-30730.07234693436,-33790.294383799366,-34125.43644016224,-20481.95397638726,-28499.0776776168
15903.132069484243,5327.270069988975,-22535.855774385425,-30685.30180279038,-33876.46035867457,-34070.98759066911,-20499.321281829034,-28409.313071884284
15885.47419136455,5320.162215252187,-22508.541942661042,-30677.813968397855,-33834.48378258751,-34094.456922347184,-20500.48357254071,-28506.520808520414
15897.499429881505,5273.558828062872,-22529.17260279329,-30718.78471598443,-33747.20022048953,-34149.553972429516,-20486.29021481159,-28611.28343478244
15919.270028980975,5275.257560641475,-22559.36980955241,-30726.74193701052,-33772.524746957395,-34136.96994030118,-20483.831522921508,-28524.379852340207
15903.355586928796,5320.1175117632765,-22548.93154489178,-30685.525320234934,-33866.60323936978,-34073.17806162573,-20499.23187485121,-28409.268368395373
15890.19040944462,5332.969764825078,-22515.850963097928,-30669.40971248266,-33851.40405314017,-34078.296611105994,-20500.81884870754,-28479.050514584844
15895.197200202609,5282.1418979337095,-22525.216344024702,-30706.04422164491,-33756.789118860856,-34140.25564673611,-20490.693508469285,-28605.404925990693
15905.255485207497,5254.716307487048,-22561.917908420313,-30732.79925975791,-33761.57239217429,-34148.52579218457,-20485.083220611003,-28553.817099787844
15898.572313615361,5295.061206228877,-22559.190995596768,-30706.759477467476,-33869.352503937786,-34097.22853865964,-20508.798421478084,-28433.184734962553
15884.066031463866,5329.013506056489,-22521.2153817672,-30664.224107769027,-33873.73344585102,-34071.18875636921,-20516.219200637246,-28462.957258577022
15886.055336720388,5289.8308980263355,-22526.13276554737,-30693.795465683397,-33777.129206315185,-34128.990367530634,-20503.881037697916,-28589.55753917188
15909.01057827599,5261.846513968291,-22552.46312051572,-30727.636006788733,-33748.85424957922,-34154.1137282984,-20488.994775890682,-28574.872443064745
15914.732624856548,5302.102005732299,-22553.580707738485,-30702.825570443343,-33841.390471624196,-34092.66878279076,-20497.846066694983,-28436.604551864213
15900.33810142733,5343.475084719073,-22512.431146196264,-30652.78001460791,-33870.78301558292,-34051.049834614976,-20504.730403987218,-28430.25665643891
15888.134048954733,5303.934848777634,-22520.231905011166,-30682.105503333274,-33786.65104945315,-34105.20811143018,-20505.132735387415,-28571.586736629815
15903.892028795724,5260.885388956713,-22553.26778331611,-30733.51451558048,-33741.09819425323,-34149.3081032405,-20489.39710729088,-28593.60320491829
15913.01154053349,5288.623903825749,-22560.554452008542,-30706.804180956387,-33811.84146545428,-34096.11095143687,-20477.125999584914,-28442.304246700318
15894.392537402218,5326.599517655315,-22516.722681131683,-30658.993799566484,-33864.47982364653,-34058.04593062949,-20488.547741001577,-28409.53658932884
15876.779362771436,5289.897953259701,-22518.421413710286,-30682.910166133664,-33809.33807007528,-34106.72803005314,-20498.471915539732,-28548.184460185108
15892.71615656807,5244.4568567820625,-22552.485472260174,-30728.932407967142,-33741.65698786461,-34157.08651031095,-20490.42528753582,-28596.71009739758
15912.072767266365,5271.256598383975,-22563.460178787733,-30719.097640406806,-33805.15829386214,-34115.4005069018,-20497.130810872415,-28476.88239537268
15900.941598527623,5320.363380952284,-22531.921867361292,-30671.533128205912,-33878.851995331286,-34070.58525926891,-20514.408709336367,-28414.63278706465
15884.75893554198,5309.522784891461,-22517.057957298515,-30673.455378229068,-33823.44202082658,-34104.62696607435,-20511.279465112624,-28528.06789017533
15894.280778679942,5264.215798880554,-22556.017047884114,-30721.22105613006,-33745.79206058884,-34154.18078353176,-20499.164819617847,-28611.439896993626
15914.285589967441,5277.582142064827,-22569.2269288572,-30720.818724729867,-33791.30021229985,-34129.14682974182,-20494.448601537777,-28503.905654419144
15911.268104465975,5338.2000730276195,-22526.848021369937,-30661.854822856763,-33861.439986400605,-34058.381206796315,-20490.82761893602,-28394.33740309923
15883.015499474466,5325.951317066111,-22522.109451545413,-30664.626439169224,-33837.61302681125,-34087.01379144356,-20503.56811327554,-28491.746305435456
15894.794868802413,5278.319749631853,-22539.5214604761,-30710.760439724978,-33752.184659503066,-34152.07971955296,-20493.621586992933,-28604.734373657036
15915.358473701297,5277.850362998291,-22567.930527678793,-30727.859524233285,-33782.85125289574,-34141.216771747684,-20497.041403894593,-28534.549896067372
15910.754014343504,5322.9561833091,-22544.729416934184,-30683.60307021178,-33874.56046039587,-34085.20330014268,-20515.079261670027,-28423.9087610136
15893.185543201631,5335.920195093178,-22511.045338040036,-30653.62938089721,-33858.22133519904,-34083.973954197645,-20515.459241325767,-28482.537386719872
15901.366281672274,5293.071900972355,-22516.052128798026,-30683.513663233956,-33747.133165256164,-34133.23719897714,-20480.679926953308,-28582.159111757173
15923.583915660849,5277.649197298193,-22548.46215825822,-30710.38046006924,-33747.02140653389,-34136.07587052296,-20470.48753148169,-28528.470221575528
15921.0581685374,5326.554814166405,-22542.762463422117,-30673.34361950679,-33842.150430935675,-34071.658143002765,-20487.877188667917,-28407.14495267212
15898.639368848726,5348.34776501033,-22513.258160741112,-30644.97925579301,-33856.85787878727,-34060.72813996412,-20503.612816764453,-28440.49375539944
15899.66754909367,5309.656895358193,-22516.208591009214,-30675.198814296582,-33768.36732248871,-34118.082716236444,-20494.046270137584,-28572.23493721902
15918.599476647316,5274.0952699297995,-22557.246393829155,-30718.024756672952,-33757.414967705605,-34150.64920790782,-20496.39320330539,-28560.343809168793
15930.669418653182,5321.369209452773,-22541.667227943806,-30679.02096259844,-33832.24860814198,-34083.45986407517,-20501.847028952485,-28425.696900570027
15913.905610311702,5361.53529423896,-22502.998710036125,-30633.646921354168,-33851.448756629085,-34045.439546756694,-20499.23187485121,-28417.694976055027
15900.561618871883,5320.139863507732,-22507.670224627283,-30663.464148457548,-33773.32940975778,-34105.94571899721,-20498.91895042884,-28555.247611432984
15915.537287656938,5273.022386195945,-22549.13271059188,-30711.006308913984,-33727.66479583559,-34142.982559559656,-20481.90927289835,-28576.392361687704
15922.309866226897,5302.459633643584,-22554.921812405802,-30695.18127383963,-33806.18647410709,-34097.742628782114,-20486.178456089314,-28447.176926991575
15895.57717985835,5339.1388462947425,-22533.55354470653,-30658.613819910744,-33874.53810865142,-34065.444358044195,-20512.57586629103,-28417.158534188096
15889.38574664423,5320.743360608025,-22509.860695583906,-30664.469976958037,-33803.9289479171,-34104.60461432989,-20503.232837108713,-28537.74619552448
15914.24088647853,5289.674435815148,-22537.398044752845,-30702.93732916562,-33736.024348261875,-34142.66963513728,-20490.157066602358,-28587.90351008219
15919.247677236519,5299.28568593093,-22563.79545495456,-30710.73808798052,-33807.03584039639,-34121.994271516116,-20504.57394177603,-28482.69384893106
15912.944485300122,5355.008584858011,-22524.165812035302,-30656.177479765116,-33871.81119582787,-34066.60664875587,-20500.125944629424,-28410.743583529424
15907.088328252832,5350.180608055664,-22488.06774473998,-30650.96952330703,-33804.17481710611,-34087.684343777226,-20473.99675536117,-28509.068907388322
15914.218534734075,5296.447014385106,-22519.047262555036,-30700.165712853162,-33721.31690041028,-34146.46943169468,-20457.076484808505,-28594.631385163237
15926.57904941786,5295.307075417885,-22556.709951962228,-30715.25314036049,-33775.87750862569,-34125.72701284016,-20463.938470356283,-28505.73849746448
15919.873526081268,5344.503264964016,-22527.250352770134,-30668.672104915633,-33872.41469292816,-34067.679532489725,-20478.422400763324,-28409.87186549567
15903.512049139983,5346.783142898458,-22497.299015200024,-30653.092939030284,-33828.94054996259,-34074.876794204334,-20468.028839591603,-28489.77935192339
15911.715139355081,5300.76090106498,-22515.02394855308,-30696.187102340118,-33727.79890630233,-34128.632739619345,-20445.252411991645,-28596.643042164214
15936.123244300277,5298.995113253011,-22541.4213587548,-30709.75461122449,-33751.0670722803,-34116.69690808021,-20445.05124629155,-28529.408994842648
15925.975552317566,5343.497436463527,-22535.453442985232,-30674.282392773915,-33849.906486261665,-34060.03523588601,-20463.513787211632,-28416.42092662107
15900.561618871883,5350.7617534115025,-22509.145439761334,-30658.680875144113,-33846.21844842654,-34063.70092197668,-20468.85585413645,-28479.58695645177
15904.763746829482,5307.0864447458325,-22515.806259609017,-30698.198759341096,-33752.63169439217,-34124.60942561739,-20450.862699849928,-28602.879178867242
15933.172814032176,5292.691921316615,-22538.537983720063,-30717.644777017213,-33740.27117970838,-34127.35869018539,-20429.42737691729,-28550.55374509737
15928.657761652204,5330.846349101824,-22539.141480820355,-30693.996631383496,-33840.675215801624,-34066.40548305577,-20445.028894547093,-28426.881543026157
15903.892028795724,5355.567378469394,-22504.876256570373,-30663.50885194646,-33859.56243986636,-34047.540610735494,-20455.981249330194,-28449.568563648292
15897.164153714677,5313.322581448863,-22516.432108453766,-30695.851826173286,-33767.9202875996,-34102.1012189509,-20444.20188000225,-28583.768437357958
15922.063997037889,5281.404290366685,-22541.153137821333,-30728.775945755955,-33739.466516907996,-34124.83294306194,-20435.976438042693,-28578.068742521853
15932.211689020598,5321.592726897326,-22537.778024408584,-30698.35522155228,-33826.12423016122,-34069.17709936823,-20445.654743391842,-28443.19831647853
15911.178697488154,5357.914311637201,-22500.517666401585,-30659.73140713351,-33862.289352689906,-34035.47066872963,-20451.33208648349,-28431.754223317414
15903.892028795724,5324.833729843346,-22494.393288420833,-30685.055933601372,-33780.571374961306,-34084.91272746476,-20445.297115480556,-28567.786940072412
15922.846308093824,5283.304188645386,-22530.245486527147,-30735.548524325914,-33731.30813018181,-34126.688137851736,-20439.66447587782,-28600.532245699436
15927.227250007065,5303.018427254967,-22547.92571639129,-30726.697233521612,-33814.657785255644,-34092.57937581294,-20454.66249640733,-28481.375096008196
15910.418738176673,5348.951262110622,-22515.582742164464,-30681.814930655353,-33877.46618717506,-34046.557133979455,-20461.390371488378,-28442.617171122693
15901.768613072469,5329.169968267675,-22498.41660242279,-30696.343564551305,-33804.42068629512,-34080.57648904044,-20459.289307509578,-28557.683951578612
15920.38761620374,5285.315845646363,-22525.79748938054,-30737.917809238174,-33732.38101391566,-34129.7056233532,-20449.879223093896,-28614.18916156163
15935.72091290008,5299.889183031223,-22537.979190108683,-30731.659320790688,-33778.58206970478,-34098.03320146003,-20435.641161875865,-28490.91929089061
15929.44007270814,5356.796724414436,-22505.300939715024,-30677.813968397855,-33854.443890386094,-34041.23741879909,-20444.17952825779,-28411.72706028546
15920.544078414927,5354.181570313164,-22478.30003241301,-30670.326134005325,-33805.35945956224,-34064.952619666175,-20447.644048648366,-28516.53439003639
15925.43911045064,5300.76090106498,-22511.98411130716,-30721.757497996987,-33732.40336566012,-34128.47627740816,-20448.09108353747,-28614.345623772817
15937.0620175674,5299.017464997467,-22541.443710499254,-30737.64958830471,-33779.990229605464,-34114.5511406125,-20454.729551640696,-28525.564494796337
15929.685941897147,5350.694698178137,-22523.87523935738,-30691.47088426005,-33870.6936086051,-34049.12758459182,-20463.558490700543,-28422.969987746477
15902.260351450486,5347.163122554198,-22496.851980310916,-30680.83145389932,-33833.65676804266,-34064.326770821426,-20461.368019743924,-28504.084468374786
15918.15244175821,5304.650104600204,-22509.74893686163,-30720.774021240955,-33738.14776398513,-34130.309120453494,-20453.544909184566,-28621.38642327624
15935.229174522065,5291.507278860483,-22547.5233849911,-30747.529059353958,-33768.07674981079,-34135.1594490003,-20460.719819154718,-28565.797634815888
15930.468252953084,5339.429418972662,-22526.51274520311,-30706.357146067283,-33855.494422375494,-34068.01480865655,-20472.655650693854,-28438.23622920945
15916.274895223964,5362.921102395189,-22483.440933637732,-30670.773168894433,-33845.36908213724,-34048.30057004697,-20470.06284833704,-28475.67540117209
15908.72000559807,5308.405197668695,-22512.051166540525,-30716.70600375009,-33760.36539797371,-34108.62792833184,-20463.178511044804,-28603.169751545163
15927.048436051422,5284.444127612606,-22543.83534715597,-30745.025663974964,-33751.625865891685,-34128.58803613044,-20457.434112719788,-28570.93853604061
15936.704389656114,5332.522729935972,-22531.296018516543,-30703.56317801037,-33839.0882419453,-34069.33356157941,-20460.920984854816,-28440.560810632804
15909.81524107638,5349.085372577354,-22506.507933915607,-30676.338753263804,-33867.27379170344,-34058.805889940966,-20476.00841236215,-28469.77454063589
15908.38472943124,5311.512090147983,-22505.077422270468,-30699.606919241778,-33771.85419462373,-34107.532692853536,-20461.368019743924,-28598.498236954005
15946.91913687219,5297.899877774701,-22519.69546314424,-30727.144268410717,-33722.16626669958,-34121.591940115926,-20435.70821710923,-28580.08039952283
15945.734494416058,5328.007677556,-22530.759576649616,-30709.642852502213,-33816.848256212266,-34077.71546575016,-20456.405932474845,-28452.58604914976
15911.782194588448,5356.416744758695,-22511.224151995677,-30682.038448099906,-33869.821890571344,-34055.27431431703,-20481.99867987617,-28449.54621190384
15903.400290417707,5329.192320012131,-22510.93357931776,-30704.390192555213,-33790.272032054905,-34099.93309973873,-20470.643993692876,-28587.858806593278
15927.20489826261,5294.8823922732345,-22533.665303428807,-30742.075233706862,-33728.20123770252,-34139.42863219126,-20451.846176605963,-28613.317443527874
15946.360343260807,5323.67143913167,-22543.45536750023,-30720.259931118482,-33803.63837523918,-34093.36168686887,-20462.172682544315,-28483.87849138719
15926.355531973308,5363.926930895678,-22509.2124949947,-30677.813968397855,-33871.47591966104,-34047.49590724658,-20482.937453143295,-28437.85624955371
15910.441089921129,5338.267128260985,-22498.751878589617,-30689.660392959166,-33808.801628208355,-34082.72225650815,-20475.67313619532,-28557.25926843396
15928.635409907749,5295.061206228877,-22526.289227758556,-30728.03833818893,-33734.0126912609,-34131.024376276066,-20461.770351144118,-28620.447650009115
15942.806415892413,5315.133072749743,-22542.2707250441,-30718.494143306514,-33786.4722354975,-34091.439436845714,-20457.456464464245,-28503.302157318853
15924.567392416882,5359.545988982438,-22526.043358569546,-30680.5408812214,-33877.28737321942,-34044.97016012313,-20482.333956043,-28429.921380272077
15907.177735230654,5346.24670103153,-22504.272759470077,-30678.12689282023,-33820.44688706957,-34075.010904671064,-20474.555548972556,-28528.69373902008
15918.107738269298,5294.100081217299,-22530.066672571502,-30727.65835853319,-33730.74933657042,-34132.61135013239,-20449.432188204788,-28615.440859251128
15935.475043711072,5296.312903918374,-22560.822672942006,-30739.258913905494,-33771.898898112646,-34112.27126267806,-20454.014295818128,-28525.922122707623
15924.43328195015,5343.475084719073,-22547.009294868625,-30700.25511983098,-33869.44191091561,-34058.716482963144,-20484.278557810612,-28422.746470301925
15908.272970708964,5352.415782501195,-22506.999672293627,-30681.099674832785,-33842.53041059142,-34065.8913929333,-20484.18915083279,-28499.189436339075
15911.893953310724,5301.766729565469,-22521.55065793403,-30722.31629160837,-33741.05349076432,-34132.52194315457,-20460.697467410264,-28609.204722548096
15924.701502883614,5285.360549135274,-22560.152120608345,-30748.311370409894,-33760.566563673805,-34135.919408311776,-20464.13963605638,-28542.59652407128
15920.275857481463,5331.539253179938,-22541.711931432717,-30704.16667511066,-33859.137756721706,-34064.30441907697,-20479.33882228599,-28416.376223132163
15896.29243568092,5350.784105155958,-22514.107527030414,-30678.372762009236,-33859.5400881219,-34060.79519519749,-20486.62549097842,-28470.8697761142
15903.556752628894,5314.261354715986,-22520.321311988988,-30708.815837957365,-33751.335293213764,-34119.87085579286,-20470.04049659258,-28602.923882356154
15926.869622095779,5291.283761415931,-22549.579745480987,-30733.760384769488,-33734.8620575502,-34130.13030649785,-20452.494377195166,-28560.7908440579
15929.507127941506,5330.354610723807,-22543.924754133794,-30700.657451231178,-33837.389509366694,-34067.07603538943,-20466.441865735276,-28428.9602552605
15904.003787518,5353.332204023863,-22515.091003786445,-30673.72359916253,-33855.98616075351,-34051.183945081706,-20484.211502577247,-28449.881488070667
15898.549961870905,5317.591764639827,-22519.762518377607,-30700.165712853162,-33768.68024691108,-34108.650280076305,-20475.136694328394,-28585.914204825665
15923.405101705206,5289.0485869704,-22547.389274524365,-30735.347358625815,-33728.93884526954,-34132.8572193214,-20461.90446161085,-28579.90158556719
15919.58295340335,5311.377979681251,-22562.387295053875,-30729.625312045257,-33824.380794093704,-34094.591032813914,-20484.39031653289,-28455.648238140137
15906.842459063824,5354.9638813691,-22518.466117199197,-30683.714828934055,-33872.68291386162,-34059.007055641065,-20497.756659717164,-28441.119604244188
15895.443069391618,5321.011581541488,-22515.292169486544,-30700.232768086527,-33785.46640699702,-34111.84657953341,-20477.930662385304,-28568.32338193934
15913.570334144872,5280.353758377285,-22545.779948923584,-30734.02860570295,-33725.42962139006,-34140.34505371393,-20462.217386033226,-28594.005536318487
15925.662627895194,5307.779348823947,-22558.65455372984,-30722.673919519657,-33800.39737229316,-34099.84369276091,-20470.375772759413,-28466.82411036779
15908.474136409062,5346.559625453905,-22534.961704607216,-30681.613764955255,-33875.141605751705,-34061.2869335755,-20491.05113638057,-28420.734813300947
15906.641293363726,5342.312794007396,-22500.07063151248,-30669.5885264383,-33804.91242467313,-34075.860270960366,-20479.428229263813,-28527.44204133058
15928.389540718741,5300.157403964688,-22531.318370261,-30713.01796591496,-33729.36352841419,-34130.46558266468,-20462.95499360025,-28594.966661330065
15923.494508683028,5294.077729472844,-22573.04907715906,-30728.105393422295,-33791.97076463351,-34111.444248133215,-20472.29802278257,-28491.567491479815
15907.24479046402,5336.009602071,-22542.047207599546,-30695.56125349537,-33874.98514354052,-34066.0925586334,-20491.274653825123,-28415.10217369821
15894.347833913307,5330.846349101824,-22509.83834383945,-30689.861558659264,-33823.911407460146,-34083.21399488616,-20485.463200266746,-28515.21563711353
15905.166078229677,5286.053453213389,-22532.279495272578,-30730.720547523564,-33740.00295877492,-34136.61231238989,-20473.549720472067,-28616.022004606966
15929.931811086157,5294.413005639673,-22553.826576927495,-30738.431899360647,-33768.5684881888,-34119.42382090376,-20473.795589661073,-28524.15633489565
15923.002770305011,5343.653898674715,-22532.726530161683,-30700.590395997813,-33858.75777706597,-34060.616381241845,-20483.898578154873,-28408.553112572805
15900.986302016534,5343.698602163626,-22507.133782760357,-30678.26100328696,-33835.26609364344,-34066.897221433785,-20478.04242110758,-28480.995116352457
15904.29436019592,5290.724967804547,-22527.853849870426,-30718.069460161863,-33751.87173508069,-34128.27511170806,-20473.683830938797,-28605.56138820188
15927.830747107357,5281.739566533514,-22550.80909142603,-30739.236562161037,-33749.61420889071,-34125.54819888451,-20464.609022689943,-28542.551820582372
15921.43814819314,5320.586898396838,-22544.729416934184,-30699.87514017524,-33849.59356183929,-34067.16544236725,-20480.992851375682,-28414.968063231478
15901.567447372372,5340.368192239785,-22511.715890373696,-30664.49232870249,-33860.054178244376,-34058.98470389661,-20492.794572448085,-28462.845499854746
15914.620866134272,5308.8522325578015,-22503.73631760315,-30688.855730158775,-33754.50924092642,-34109.65610857679,-20471.828636149006,-28589.356373471783
15932.614020420793,5277.157458920176,-22538.09094883096,-30729.6029603008,-33734.906761039114,-34132.49959141012,-20458.015258075626,-28562.37781791423
15929.708293641603,5313.993133782522,-22540.70610293223,-30704.300785577394,-33833.88028548721,-34079.12362565084,-20477.841255407486,-28429.720214571982
15908.518839897972,5343.609195185804,-22511.581779906963,-30669.230898527017,-33861.41763465615,-34063.186831854204,-20495.476781782723,-28438.325636187274
15901.053357249899,5300.135052220232,-22517.30382648752,-30700.389230297715,-33774.201127791544,-34108.62792833184,-20480.545816486578,-28577.062914021364
15922.779252860459,5268.32851986033,-22545.399969267844,-30739.013044716485,-33730.995205759435,-34134.66771062228,-20466.173644801813,-28587.054143792888
15926.266124995485,5299.442148142118,-22545.0199896121,-30720.23757937403,-33816.557683534345,-34094.32281188045,-20481.417534520333,-28457.14580501864
15911.938656799633,5338.557700938904,-22517.393233465344,-30677.232823042017,-33872.36998943925,-34057.71065446266,-20494.3368428155,-28428.289702926842
15901.9027235392,5315.110721005288,-22507.06672752699,-30687.53697723591,-33784.99702036346,-34099.95545148318,-20476.85777865145,-28557.28162017842
15919.761767358992,5274.050566440888,-22536.302809274534,-30728.08304167784,-33726.033118490355,-34145.620065405375,-20470.264014037137,-28601.42631547765
15930.267087252985,5294.368302150763,-22553.60305948294,-30713.867332204263,-33800.79970369336,-34099.798989272,-20482.065735109536,-28470.91447960311
15907.803584075402,5333.953241581112,-22534.492317973654,-30673.88006137372,-33878.851995331286,-34053.59793348288,-20501.757621974662,-28415.10217369821
15898.080575237344,5322.084465275343,-22503.93748330325,-30673.388322995703,-33805.225349095504,-34090.120683922854,-20487.251339823168,-28532.091204177286
15912.832726577846,5274.51995307445,-22529.239658026658,-30719.388213084727,-33717.986490486444,-34139.18276300225,-20467.80532214705,-28602.32038525586
15934.49156695504,5286.813412524869,-22549.624448969895,-30721.913960208174,-33776.078674325785,-34108.51616960957,-20470.398124503867,-28490.338145534774
15917.0572062799,5332.0309915579555,-22533.777062151083,-30681.54670972189,-33868.81606207086,-34066.427834800226,-20494.180380604314,-28409.71540328448
15905.613113118783,5333.595613669827,-22500.62942512386,-30672.829529384322,-33825.230160383006,-34084.398637342296,-20494.225084093225,-28504.084468374786
15914.307941711897,5283.035967711922,-22529.530230704575,-30718.36003283978,-33736.98547327345,-34135.71824261168,-20481.14931358687,-28601.09103931082
15933.329276243363,5280.934903733123,-22552.552527493543,-30726.674881777155,-33755.89504908265,-34121.48018139365,-20475.159046072848,-28521.94351219458
15929.551831430415,5330.220500257075,-22533.26297202861,-30685.50296849048,-33862.0434835009,-34068.3947883123,-20505.53506678761,-28421.114792956687
15905.791927074424,5336.657802660204,-22507.290244971544,-30666.146357792182,-33847.2913321604,-34072.082826147416,-20511.547686046088,-28488.058267600332
15910.195220732121,5285.204086924086,-22522.51178294561,-30702.490294276515,-33744.54036289935,-34130.3538239424,-20484.18915083279,-28602.879178867242
15934.737436144047,5274.966987963556,-22551.434940270778,-30722.09277416382,-33741.34406344224,-34130.443230920224,-20468.520577969623,-28546.329265395318
15935.855023366812,5326.8677385887795,-22540.840213398962,-30686.441741757604,-33840.89873324618,-34068.707712734664,-20484.837351421997,-28415.14687718712
15912.519802155472,5345.956128353611,-22508.966625805693,-30658.144433277183,-33847.31368390485,-34060.28110507502,-20492.90633117036,-28452.00490379392
15906.685996852637,5294.569467850861,-22522.08709980096,-30699.338698308315,-33758.4207962061,-34127.291634952024,-20493.755697459663,-28591.166864772662
15930.49060469754,5270.384880350218,-22550.004428625638,-30731.413451601682,-33743.780403587865,-34141.015606047586,-20492.2357788367,-28573.55369014188
15935.385636733252,5311.28857270343,-22545.802300668038,-30698.914015163664,-33833.768526764936,-34083.72808500863,-20500.90825568536,-28442.39365367814
15919.605305147805,5351.320547022885,-22504.585683892452,-30654.16582276414,-33859.22716369953,-34053.57558173843,-20498.91895042884,-28433.38590066265
15907.378900930751,5306.997037768011,-22512.475849685175,-30685.391209768204,-33773.552927202334,-34110.61723358837,-20487.430153778812,-28568.055161005876
15928.836575607846,5272.240075140009,-22545.69054194576,-30727.188971899628,-33730.59287435924,-34149.37515847387,-20484.367964788435,-28591.010402561475
15935.676209411171,5304.806566811391,-22552.08314085998,-30709.55344552439,-33805.78414270689,-34101.63183231733,-20485.418496777835,-28455.201203251032
15915.336121956841,5346.604328942815,-22514.04047179705,-30658.323247232827,-33862.64698060119,-34044.09844208937,-20500.48357254071,-28417.940845244033
15905.903685796702,5317.077674517354,-22501.63525362435,-30674.237689285004,-33791.0766948553,-34089.22661414464,-20497.130810872415,-28544.228201416518
15916.990151046533,5269.379051849729,-22542.293076788555,-30719.03058517344,-33729.028252247364,-34138.646321135326,-20485.2843863111,-28591.9491758286
15926.53434592895,5292.200182938598,-22559.012181641127,-30715.02962291594,-33799.77152344841,-34098.45788460468,-20495.3873748049,-28471.137997047663
15920.208802248098,5350.7617534115025,-22520.12014628889,-30660.938401334097,-33863.65280910168,-34047.09357584638,-20498.717784728742,-28408.44135385053
15902.796793317413,5331.449846202117,-22506.77615484907,-30664.671142658135,-33806.36528806273,-34077.06726516095,-20492.90633117036,-28515.014471413433
15916.34195045733,5283.19242992311,-22539.767329665105,-30711.252178102994,-33731.46459239299,-34131.225541976164,-20490.849970680472,-28596.53128344194
15939.788930390947,5299.62096209776,-22557.022876384603,-30716.817762472365,-33778.55971796033,-34108.851445776396,-20492.839275936996,-28498.518884005414
15924.522688927973,5340.301137006419,-22533.821765639994,-30678.21629979805,-33867.43025391463,-34061.93513416471,-20510.3406918455,-28413.917531242078
15905.00961601849,5335.450808459617,-22513.146402018836,-30664.984067080506,-33824.64901502717,-34072.46280580316,-20500.93060742982,-28491.947471135554
15903.892028795724,5279.1467641766985,-22543.075387844492,-30711.676861247644,-33747.46844142299,-34143.20607700421,-20497.421383550332,-28598.162960787173
15920.566430159382,5272.083612928822,-22573.339649836977,-30729.491201578523,-33769.73077890048,-34140.523867669566,-20495.253264338167,-28524.335148851296
15929.44007270814,5333.081523547355,-22525.484564958166,-30673.433026484614,-33849.72767230603,-34058.64942772978,-20495.253264338167,-28405.245054393417
15916.63252313525,5355.545026724938,-22494.035660509548,-30641.73825284699,-33835.82488725482,-34054.469651516636,-20497.77901146162,-28463.35958997722
15913.86090682279,5303.644276099715,-22519.963684077702,-30685.50296849048,-33750.44122343555,-34128.02924251905,-20493.889807926396,-28586.808274603878
15928.411892463195,5279.102060687788,-22556.195861839755,-30715.74487873851,-33753.570467659294,-34134.84652457792,-20492.280482325612,-28544.965808983543
15933.57514543237,5328.588822911838,-22532.972399350692,-30671.778997394922,-33838.82002101184,-34067.50071853408,-20501.77997371912,-28409.603644562205
15909.457613165096,5347.1184190652875,-22505.725622859674,-30646.946209305075,-33850.91231476216,-34055.27431431703,-20506.116212143446,-28434.078804740766
15905.590761374327,5298.078691730344,-22509.92775081727,-30685.413561512658,-33758.398444461636,-34121.48018139365,-20492.213427092247,-28574.246594219996
15927.316656984885,5271.167191406154,-22546.785777424073,-30720.349338096305,-33731.03990924834,-34140.41210894729,-20478.57886297451,-28557.773358556435
15927.026084306966,5309.835709313835,-22550.965553637216,-30692.811988927366,-33827.59944529527,-34089.22661414464,-20492.392241047888,-28426.412156392595
15900.38280491624,5342.156331796209,-22519.807221866515,-30660.35725597826,-33867.49730914799,-34065.26554408855,-20511.123002901437,-28428.043833737833
15895.800697302902,5311.802662825902,-22515.515686931096,-30682.664296944655,-33782.650087195645,-34112.71829756717,-20501.95878767476,-28555.940515511098
15915.738453357037,5274.363490863263,-22552.485472260174,-30723.188009642126,-33741.38876693115,-34150.89507709683,-20495.923816671828,-28579.208681489075
15929.909459341701,5305.767691822969,-22558.878071174393,-30696.92470990714,-33825.565436549834,-34096.13330318133,-20507.47966855522,-28447.355740947216
15914.687921367637,5347.163122554198,-22518.063785799004,-30652.176517507618,-33860.680027089125,-34057.822413184935,-20506.183267376815,-28403.747487514913
15900.04752874941,5321.302154219407,-22508.07255602748,-30664.246459513484,-33792.06017161133,-34101.4977218506,-20501.2882353411,-28531.018320443432
15915.179659745654,5276.598665308794,-22539.052073842537,-30707.519436778955,-33733.47624939397,-34140.21094324719,-20489.57592124652,-28589.669297894157
15928.05426455191,5294.9941509955115,-22548.46215825822,-30701.149189609194,-33790.65201171065,-34111.84657953341,-20499.50009578468,-28475.138959305164
15904.093194495821,5335.227291015064,-22534.961704607216,-30660.491366444992,-33867.96669578156,-34059.25292483007,-20516.934456459818,-28404.127467170652
15888.156400699187,5318.284668717942,-22509.63717813935,-30656.892735587688,-33808.086372385784,-34083.5939745419,-20505.468011554243,-28514.16510512413
15901.790964816924,5269.624921038738,-22530.60311443843,-30698.310518063372,-33725.116696967685,-34133.86304782189,-20487.877188667917,-28589.065800793865
15915.91726731268,5273.134144918221,-22555.391199039364,-30712.995614170508,-33770.51308995642,-34122.910693038786,-20494.828581193517,-28495.948433393056
15910.552848643405,5325.772503110469,-22525.26104751361,-30665.475805458525,-33861.372931167236,-34058.872945174335,-20512.888790713405,-28405.423868349062
15897.633540348237,5330.242852001531,-22504.429221681265,-30652.735311119,-33822.480895815,-34073.78155872602,-20504.35042433148,-28487.141846077666
15909.323502698364,5288.735662548025,-22521.483602700664,-30689.54863423689,-33725.07199347878,-34135.29355946703,-20486.469028767235,-28592.329155484338
15933.239869265542,5286.947522991601,-22544.46119600072,-30699.78573319742,-33744.51801115489,-34122.776582572056,-20482.95980488775,-28513.986291168487
15921.192279004132,5330.3322589793515,-22536.280457530076,-30665.654619414167,-33848.54302984989,-34067.72423597863,-20497.57784576152,-28401.221740391466
15898.259389192986,5339.1388462947425,-22509.793640350537,-30648.175555250116,-33842.75392803597,-34071.16640462475,-20507.077337155028,-28464.074845799787
15897.365319414774,5289.115642203766,-22526.199820780734,-30688.654564458677,-33751.894086825145,-34131.56081814299,-20500.707089985262,-28589.13285602723
15926.824918606868,5278.6773775431375,-22553.51365250512,-30710.536922280422,-33744.205086732516,-34126.50932389609,-20490.939377658295,-28537.388567613194
15935.162119288698,5322.978535053556,-22536.772195908095,-30667.755683392967,-33828.94054996259,-34068.68536099021,-20495.923816671828,-28401.109981669186
15912.519802155472,5343.3633259967955,-22507.245541482633,-30639.63718886819,-33844.76558503695,-34059.11881436334,-20499.209523106758,-28429.116717471687
15912.184525988643,5304.7395115780255,-22507.40200369382,-30670.817872383344,-33749.83772633526,-34115.154637712796,-20487.29604331208,-28566.825815060834
15929.730645386058,5271.8153919953575,-22543.902402389336,-30711.207474614082,-33723.663833578095,-34144.05544329351,-20480.165836830838,-28559.31562892385
15940.995924591534,5314.373113438262,-22544.03651285607,-30688.40869526967,-33816.73649748999,-34092.57937581294,-20502.003491163672,-28432.514182628893
15921.214630748587,5349.1747795551755,-22506.865561826893,-30646.25330522696,-33855.11444271975,-34058.60472424087,-20511.77120349064,-28414.744545786925
15907.356549186296,5315.2448314720195,-22510.866524084395,-30668.917974104643,-33781.040761594864,-34113.65707083429,-20507.3902615774,-28551.9395532536
15927.808395362903,5281.560752577871,-22542.382483766378,-30705.016041399962,-33730.43641214805,-34143.02726304856,-20495.432078293812,-28578.02403903294
15931.988171576044,5306.102967989799,-22559.21334734122,-30689.638041214712,-33805.60532875125,-34099.486064849625,-20504.86451445395,-28445.925229302076
15913.190354489132,5348.839503388346,-22520.03073931107,-30641.24651446897,-33875.32041970735,-34055.69899746168,-20525.182250163823,-28407.703746283503
15904.920209040667,5328.231195000553,-22498.4613059117,-30647.50500291646,-33795.90467165764,-34090.813588000965,-20518.476726827234,-28530.995968698975
15921.52755517096,5288.847421270302,-22533.777062151083,-30693.862520916766,-33722.43448763305,-34138.53456241305,-20494.739174215698,-28583.880196080234
15942.135863558755,5314.060189015889,-22542.874222144394,-30687.201701069083,-33778.15738656013,-34095.9991927146,-20493.688642226298,-28463.560755677314
15922.354569715808,5355.1650470691975,-22522.17650677878,-30655.05989254235,-33865.642114358205,-34050.78161368151,-20510.3406918455,-28395.745562999913
15898.415851404174,5331.785122368947,-22508.139611260845,-30651.17068900713,-33807.88520668569,-34076.776692483036,-20504.842162709494,-28496.171950837608
15917.638351635738,5283.818278767858,-22532.212440039213,-30698.712849463565,-33729.654101092114,-34139.71920486918,-20496.974348661228,-28588.46230369357
15940.191261791142,5296.7599388074805,-22544.483547745174,-30696.5447302514,-33767.7191218995,-34106.59391958641,-20492.459296281257,-28489.712296690024
15923.025122049467,5337.887148605246,-22521.617713167398,-30654.724616375523,-33844.16208793665,-34050.60279972587,-20497.890770183894,-28392.884539709634
15901.500392139005,5333.260337502997,-22495.220302965678,-30644.666331370634,-33817.92113994612,-34068.8418232014,-20493.95686315976,-28478.558776206828
15911.178697488154,5286.276970657942,-22512.319387473988,-30683.245442300493,-33720.60164458772,-34122.37425117186,-20470.3310692705,-28581.734428612523
15925.10383428381,5270.340176861308,-22551.546698993054,-30707.6982507346,-33749.43539493506,-34125.078812250955,-20475.29315653958,-28524.22339012902
15930.334142486352,5329.147616523221,-22516.387404964855,-30660.424311211624,-33838.61885531174,-34057.73300620711,-20481.43988626479,-28403.121638670164
15909.234095720542,5341.798703884924,-22489.11827672938,-30640.06187201284,-33838.238875655996,-34057.73300620711,-20478.780028674606,-28462.756092876924
15906.350720685807,5286.634598569227,-22509.68188162826,-30689.861558659264,-33753.05637753682,-34131.24789372062,-20469.81697914803,-28593.402039218196
15929.77534887497,5270.5189908169505,-22546.852832657438,-30716.817762472365,-33744.562714643806,-34133.57247514397,-20456.562394686032,-28552.431291631616
15933.016351820988,5312.272049459463,-22538.98501860917,-30688.900433647686,-33838.931779734114,-34070.831128457925,-20463.33497325599,-28420.82422027877
15910.57520038786,5339.496474206027,-22497.388422177843,-30650.92481981812,-33851.873439773735,-34049.999302625576,-20466.464217479734,-28439.845554810236
15904.137897984732,5297.162270207676,-22512.49820142963,-30682.954869622576,-33766.89210735466,-34109.11966670986,-20467.917080869327,-28581.75678035698
15935.765616388991,5277.783307764925,-22542.471890744197,-30715.07432640485,-33737.96895002949,-34120.541408126526,-20459.177548787302,-28578.202852988587
15935.922078600179,5309.81335756938,-22537.398044752845,-30687.224052813537,-33815.26128235594,-34066.71840747815,-20446.19118525877,-28434.458784396506
15921.95223831561,5354.718012180092,-22497.477829155665,-30650.58954365129,-33859.920067777646,-34033.86134312885,-20451.913231839328,-28418.454935366506
15909.0552817649,5323.380866453751,-22501.590550135443,-30675.288221274404,-33774.96108710302,-34086.767922254556,-20450.795644616563,-28557.907469023165
15927.383712218252,5280.9125519886675,-22533.061806328515,-30723.433878831136,-33724.89317952313,-34126.66578610728,-20443.486624179677,-28592.66443165117
15938.939564101645,5305.387712167229,-22541.533117477076,-30716.415431072168,-33799.860930426235,-34085.0468379315,-20455.891842352372,-28462.28670624336
15922.443976693628,5351.611119700804,-22507.558465905007,-30673.388322995703,-33865.97739052503,-34038.35404376436,-20471.806284404553,-28416.130353943154
15913.413871933684,5330.891052590734,-22492.985128520148,-30681.434950999614,-33795.45763676854,-34075.5920500269,-20468.699391925264,-28542.194192671086
15923.136880771743,5278.9679502210565,-22531.720701661194,-30734.676806292155,-33734.52678138337,-34130.28676870904,-20460.56335694353,-28611.775173160455
15942.29232576994,5299.956238264589,-22543.388312266867,-30727.23367538854,-33790.16027333263,-34094.81455025847,-20463.42438023381,-28497.20013108255
15922.466328438084,5341.9551660961115,-22522.40002422333,-30688.40869526967,-33868.45843415957,-34049.59697122538,-20479.428229263813,-28422.63471157965
15905.970741030067,5335.115532292787,-22499.60124487892,-30684.765360923455,-33822.79382023738,-34074.519166293045,-20481.32812754251,-28530.414823343137
15924.187412761143,5292.513107360972,-22521.26008525611,-30724.08207942034,-33733.00686276041,-34119.02148950356,-20459.848101120962,-28609.025908592455
15945.265107782498,5292.200182938598,-22540.08025408748,-30730.809954501387,-33767.94263934406,-34102.280032906536,-20457.56822318652,-28514.634491757693
15931.608191920304,5333.43915145864,-22530.200783038235,-30696.902358162686,-33871.27475396094,-34052.1897735822,-20488.77125844613,-28424.176981947065
15910.709310854592,5337.417761971684,-22503.06576526949,-30677.791616653398,-33841.56928557983,-34062.560983009455,-20486.357270044955,-28497.557758993837
15917.43718593564,5287.66277881417,-22515.40392820882,-30718.74001249552,-33744.65212162163,-34121.301367438005,-20472.454484993756,-28610.925806871153
15936.749093145025,5275.9951682085,-22548.685675702774,-30738.767175527475,-33760.991246818456,-34112.58418710044,-20472.633298949397,-28549.927896252622
15933.753959388014,5323.045590286922,-22533.240620284156,-30703.205550099083,-33851.31464616235,-34054.15672709426,-20482.62452872092,-28429.38493840515
15911.312807954886,5342.826884129869,-22502.618730380385,-30675.958773608065,-33844.83264027031,-34050.55809623696,-20487.117229356438,-28474.64722092715
15921.013465048489,5308.338142435329,-22501.188218735246,-30700.568044253356,-33741.99226403145,-34099.28489914953,-20472.029801849105,-28589.71400138307
15944.728665915569,5290.143822448709,-22534.849945884936,-30730.206457401095,-33738.10306049622,-34110.28195742154,-20472.074505338016,-28559.919126024142
15943.72283741508,5333.0368200584435,-22533.97822785118,-30698.310518063372,-33832.62858779771,-34054.62611372783,-20484.2338543217,-28431.28483668385
15924.701502883614,5358.003718615022,-22491.01817500808,-30656.468052443037,-33850.10765196176,-34035.9847588521,-20482.691583954285,-28443.354778689718
15918.979456303055,5317.681171617648,-22494.437991909745,-30683.84893940079,-33763.0699590528,-34094.881605491835,-20475.24845305067,-28578.135797755218
15938.380770490263,5282.074842700344,-22533.59824819544,-30726.94310271062,-33726.14487721263,-34122.88834129433,-20470.86751113743,-28581.108579767773
15945.19805254913,5318.150558251209,-22536.302809274534,-30704.323137321848,-33811.90852068765,-34063.65621848777,-20482.512769998644,-28447.221630480486
15920.09704352582,5351.164084811698,-22511.425317695775,-30672.226032284027,-33863.049312001385,-34036.58825595239,-20497.77901146162,-28433.452955896017
15916.252543479508,5326.487758933039,-22493.610977364897,-30686.240576057506,-33777.19626154855,-34085.94090770971,-20477.90831064085,-28560.097939979787
15934.357456488307,5283.035967711922,-22531.89951561684,-30735.548524325914,-33728.31299642479,-34125.056460506494,-20461.949165099762,-28592.776190373446
15943.476968226072,5306.773520323458,-22542.382483766378,-30724.752631754,-33806.05236364035,-34089.27131763355,-20478.5341594856,-28474.602517438238
15930.736473886547,5355.477971491572,-22505.099774014925,-30677.344581764293,-33866.536184136414,-34046.534782235,-20498.471915539732,-28431.038967494842
15917.14661325772,5338.378886983262,-22490.459381396697,-30681.54670972189,-33798.45277052555,-34075.927326193734,-20484.278557810612,-28545.614009572746
15927.942505829635,5286.209915424575,-22523.02587306808,-30729.89353297872,-33723.88735102265,-34125.16821922877,-20466.128941312905,-28606.18723704663
15940.68300016916,5295.508241117984,-22548.238640813666,-30737.582533071345,-33792.61896522271,-34102.928233495746,-20485.887883411397,-28510.924102178113
15930.781177375458,5344.927948108667,-22518.35435847692,-30691.873215660242,-33868.07845450383,-34055.76605269504,-20495.700299227276,-28432.1118512287
15912.63156087775,5335.696677648625,-22502.864599569395,-30683.334849278315,-33828.04648018438,-34077.603707027876,-20502.38347081941,-28528.73844250899
15927.763691873992,5291.7084445605815,-22522.93646609026,-30721.533980552435,-33732.78334531586,-34125.056460506494,-20477.975365874216,-28612.870408638766
15951.523596229983,5298.279857430442,-22544.23767855617,-30726.071384676863,-33757.973761316985,-34107.44328587571,-20464.34080175648,-28515.953244680553
15937.464348967595,5339.29530850593,-22533.039454584057,-30695.963584895562,-33857.34961716528,-34056.54836375098,-20496.482610283212,-28422.38884239064
15921.77342435997,5347.341936509841,-22501.25527396861,-30671.220203783538,-33835.288445387894,-34057.77770969602,-20495.119153871437,-28494.093238603265
15923.695674383125,5293.541287605916,-22518.242599754645,-30715.87898920524,-33746.48496466696,-34124.60942561739,-20485.016165377638,-28613.049222594407
15943.67813392617,5283.639464812215,-22548.260992558124,-30737.761347026986,-33755.85034559373,-34123.76005932809,-20493.53218001511,-28558.376855656727
15944.818072893391,5334.422628214673,-22535.945181363248,-30693.84016917231,-33848.74419554999,-34057.062453873456,-20509.33486334501,-28433.654121596115
15919.895877825724,5344.9502998531225,-22502.93165480276,-30672.270735772938,-33847.246628671484,-34061.91278242025,-20513.53699130261,-28480.503377974437
15914.822031834368,5296.491717874017,-22518.30965498801,-30707.31827107886,-33753.97279905949,-34117.41216390278,-20496.52731377212,-28604.309690512382
15936.8608518673,5277.693900787103,-22554.832405427984,-30741.158812184196,-33748.474269923485,-34123.55889362799,-20495.253264338167,-28577.733466355025
15942.001753092021,5323.202052498109,-22546.249335557146,-30708.391154812714,-33831.399241852676,-34070.24998310208,-20504.19396212029,-28438.839726309747
15918.733587114048,5347.856026632313,-22520.343663733445,-30677.009305597465,-33860.03182649992,-34053.86615441634,-20517.984988449214,-28455.692941629048
15912.38569168874,5308.2040319685975,-22517.84026835445,-30699.763381452965,-33770.78131088988,-34102.81647477346,-20503.232837108713,-28583.097885024297
15931.049398308922,5267.590912293304,-22557.246393829155,-30742.812841273888,-33740.33823494175,-34140.300350225014,-20495.499133527177,-28586.85297809279
15942.91817461469,5299.442148142118,-22550.98790538167,-30726.965454455076,-33813.1825701216,-34094.05459094699,-20496.59436900549,-28453.971857305987
15911.715139355081,5328.141788022732,-22529.150251048835,-30693.907224405677,-33872.54880339489,-34068.05951214546,-20520.287218128113,-28440.381996677163
15892.224418190053,5291.172002693654,-22537.956838364225,-30716.79541072791,-33808.5781107638,-34118.17212321426,-20525.808099008573,-28581.51091116797
15919.359435958797,5255.543322031895,-22561.26970783111,-30751.507669867002,-33744.29449371034,-34146.20121076122,-20508.552552289075,-28618.167772074674
15940.705351913615,5289.1826974371315,-22560.018010141615,-30731.167582412672,-33800.17385484861,-34100.603652072394,-20501.73527023021,-28485.420761754605
15913.34681670032,5323.738494365036,-22546.0705216015,-30699.204587841585,-33886.45158844609,-34065.377302810826,-20527.26096239817,-28439.711444343502
15893.297301923909,5303.130185977243,-22538.2697627866,-30705.530131522435,-33830.52752381891,-34099.910747994276,-20525.517526330656,-28559.248573690486
15918.621828391771,5269.624921038738,-22545.93641113477,-30738.722472038568,-33738.23717096295,-34144.636588649344,-20494.985043404704,-28614.882065639744
15948.796683406435,5296.491717874017,-22548.596268724952,-30725.154963154193,-33772.34593300175,-34101.11774219486,-20480.34465078648,-28481.64331694166
15923.807433105403,5332.656840402704,-22539.901440131838,-30693.102561605283,-33868.05610275938,-34052.368587537836,-20504.752755731675,-28404.9544817155
15899.220514204564,5318.8881658182345,-22524.590495179953,-30691.493236004502,-33834.34967212077,-34080.97882044063,-20511.77120349064,-28513.159276623643
15914.844383578824,5282.499525844994,-22539.633219198375,-30730.362919612282,-33745.56854314429,-34130.599693131415,-20493.57688350402,-28606.298995768906
15933.083407054355,5285.539363090917,-22564.287193332577,-30735.481469092545,-33769.75313064494,-34119.42382090376,-20495.052098638072,-28517.473163303515
15925.886145339746,5333.3273927363625,-22543.388312266867,-30690.59916622629,-33863.45164340158,-34063.410349298756,-20511.458279068265,-28419.19254293353
15905.43429916314,5339.384715483751,-22512.98993980765,-30675.377628252227,-33840.1387739347,-34075.77086398254,-20514.162840147357,-28493.199168825053
15917.928924313657,5298.9280580196455,-22520.678939900274,-30707.340622823314,-33739.9135517971,-34124.31885293947,-20500.05888939606,-28602.342737000316
15937.933735601157,5284.310017145875,-22550.764387937117,-30733.089832435828,-33746.373205944685,-34126.62108261837,-20498.136639372904,-28540.74132928149
15931.00469482001,5331.785122368947,-22537.621562197397,-30695.851826173286,-33843.31272164735,-34060.41521554175,-20507.457316810767,-28414.543380086827
15908.518839897972,5352.706355179114,-22503.758669347608,-30666.280468258916,-33841.30106464637,-34056.50366026207,-20499.3883370624,-28457.481081185473
15913.123299255765,5309.634543613737,-22508.139611260845,-30695.225977328537,-33744.29449371034,-34109.87962602134,-20483.473895010222,-28583.097885024297
15930.222383764076,5277.559790320372,-22547.36692277991,-30737.71664353808,-33724.24497893393,-34127.06811750747,-20470.755752415153,-28550.419634630638
15928.970686074577,5313.993133782522,-22549.73620769217,-30715.163733382673,-33823.30791035985,-34080.01769542905,-20495.81205794955,-28426.635673837147
15909.792889331924,5346.470218476084,-22510.151268261823,-30672.49425321749,-33857.77430030993,-34055.855459672865,-20514.453412825278,-28438.325636187274
15902.841496806324,5304.158366222187,-22512.520553174087,-30705.150151866696,-33768.456729466525,-34116.18281795774,-20493.398069548377,-28577.12996925473
15925.684979639647,5271.793040250903,-22538.828556397984,-30734.095660936317,-33718.43352537555,-34149.73278638515,-20474.488493739187,-28585.623632147748
15947.34382001684,5319.022276284966,-22529.4184719823,-30707.251215845492,-33796.9775553915,-34090.61242230087,-20482.80334267656,-28449.1662322481
15929.77534887497,5354.6956604356365,-22499.84711406793,-30671.153148550173,-33850.91231476216,-34052.927381149224,-20499.835371951507,-28424.176981947065
15912.251581222008,5320.408084441196,-22501.098811757423,-30685.614727212756,-33779.61024994973,-34098.18966367122,-20494.470953282234,-28546.731596795515
15928.255430252007,5278.655025798682,-22530.960742349715,-30726.74193701052,-33714.65608056261,-34141.06030953649,-20477.52833098511,-28590.071629294354
15934.849194866323,5295.999979496,-22556.061751373025,-30722.740974753022,-33794.51886350141,-34104.22463467415,-20490.537046258098,-28471.897956359146
15917.839517335835,5339.071791061377,-22524.45638471322,-30679.244480042995,-33868.39137892621,-34060.72813996412,-20511.43592732381,-28413.42579286406
15898.996996760012,5322.24092748653,-22509.68188162826,-30684.854767901277,-33803.68307872809,-34095.32864038094,-20512.15118314638,-28536.539201323892
15916.09608126832,5281.069014199855,-22536.146347063346,-30727.926579466653,-33723.10503996671,-34149.79984161852,-20494.5380085156,-28612.199856305106
15935.206822777609,5296.268200429464,-22557.671076973806,-30722.562160797377,-33772.033008579376,-34111.779524300044,-20490.44763928028,-28493.847369414256
15930.557659930904,5346.20199754262,-22521.327140489477,-30676.182291052617,-33849.973541495034,-34050.2898753035,-20501.802325463574,-28400.327670613253
15902.215647961575,5333.0368200584435,-22507.536114160554,-30673.813006140354,-33815.77537247841,-34081.20233788518,-20509.088994156005,-28499.949395650554
15912.922133555669,5287.036929969422,-22529.127899304378,-30708.815837957365,-33728.31299642479,-34134.28773096654,-20496.303796327567,-28602.990937589522
15939.67717166867,5291.529630604939,-22541.80133841054,-30712.61563451477,-33747.24492397844,-34110.70664056619,-20486.647842722876,-28513.02516615691
15926.936677329146,5330.667535146182,-22532.92769586178,-30677.67985793112,-33846.8890007602,-34062.225706842626,-20506.71970924374,-28406.250882893906
15908.34002594233,5338.065962560888,-22507.044375782538,-30655.417520453637,-33826.839485983786,-34051.85449741536,-20510.944188945796,-28472.434398226073
15913.212706233588,5291.730796305036,-22526.13276554737,-30696.07534361784,-33734.23620870545,-34114.46173363468,-20496.080278883015,-28593.08911479582
15935.407988477707,5276.241037397509,-22555.1229781059,-30723.188009642126,-33739.15359248562,-34123.827114561456,-20492.883979425907,-28547.066872962343
15932.122282042776,5317.85998557329,-22537.398044752845,-30689.526282492436,-33835.579018065815,-34067.16544236725,-20512.01707267965,-28420.667758067582
15907.20008697511,5336.858968360301,-22509.70423337272,-30661.854822856763,-33844.92204724813,-34058.18004109622,-20516.263904126157,-28449.233287481464
15919.493546425529,5308.561659879882,-22498.036622767046,-30683.06662834485,-33741.94756054253,-34107.398582386806,-20484.68088921081,-28565.75293132698
15943.588726948348,5290.613209082271,-22528.3679399929,-30710.671032747156,-33712.733830539444,-34122.17308547176,-20468.297060525067,-28546.84335551779
15946.092122327344,5326.040724043933,-22522.556486434518,-30680.36206726576,-33800.620889737715,-34062.20335509817,-20481.417534520333,-28413.694013797525
15922.9580668161,5356.05911684741,-22491.465209897186,-30650.16486050664,-33838.6859105451,-34042.66793044424,-20500.997662663183,-28420.57835108976
15918.554773158405,5318.53053790695,-22494.482695398652,-30674.72942766302,-33755.53742117136,-34096.71444853717,-20495.52148527163,-28562.80250105888
15936.592630933837,5279.504392087983,-22542.382483766378,-30715.811933971876,-33719.34994689822,-34130.3538239424,-20498.114287628447,-28581.823835590345
15939.72187515758,5309.388674424729,-22550.004428625638,-30703.11614312126,-33808.82397995281,-34085.09154142041,-20516.018034937148,-28449.09917701473
15924.746206372525,5355.723840680581,-22506.686747871252,-30659.083206544306,-33849.72767230603,-34047.22768631312,-20517.694415771297,-28413.068164952776
15914.844383578824,5329.952279323612,-22490.660547096795,-30661.25132575647,-33764.276953253386,-34084.15276815328,-20491.587578247498,-28533.275846633416
15929.10479654131,5286.388729380218,-22524.344625990943,-30699.942195408606,-33705.91654848058,-34121.569588371465,-20480.47876125321,-28577.733466355025
15939.163081546198,5306.281781945441,-22538.917963375803,-30696.656488973676,-33775.96691560351,-34087.684343777226,-20490.648804980374,-28462.219651009997
15927.026084306966,5356.506151736517,-22500.69648035723,-30643.146412747672,-33839.82584951232,-34035.49302047408,-20505.44565980979,-28391.61049027568
15911.111642254788,5339.563529439393,-22488.31361392899,-30647.348540705272,-33785.73462793048,-34073.24511685909,-20502.78580221961,-28504.576206752805
15926.310828484397,5288.959179992578,-22524.612846924407,-30704.41254429967,-33720.1099062097,-34138.69102462423,-20497.935473672806,-28593.625556662748
15939.230136779564,5292.736624805525,-22545.17645182329,-30706.871236189752,-33757.43731945006,-34110.12549521035,-20495.81205794955,-28487.16419782212
15928.031912807455,5345.15146555322,-22518.51082068811,-30663.8888316022,-33849.07947171682,-34049.641674714294,-20517.4932500712,-28398.271310123364
15909.569371887372,5343.67625041917,-22497.45547741121,-30653.3835117082,-33811.237968353984,-34068.08186388992,-20518.25320938268,-28488.550005978348
15913.369168444773,5286.925171247145,-22523.986998079657,-30704.12197162175,-33724.64731033413,-34133.103088510405,-20503.501058042177,-28596.844207864313
15936.34676174483,5286.589895080316,-22548.88684140287,-30717.287149105927,-33750.37416820219,-34130.443230920224,-20503.188133619802,-28525.8327157298
15928.791872118936,5332.589785169338,-22535.051111585035,-30676.62932594172,-33846.0396344709,-34072.082826147416,-20519.25903788317,-28415.2586359094
15911.536325399438,5348.9959655995335,-22500.227093723668,-30649.807232595354,-33823.9337592046,-34063.36564580985,-20514.72163375874,-28461.526746931882
15915.805508590402,5308.405197668695,-22516.87914334287,-30683.513663233956,-33741.00878727541,-34124.54237038403,-20508.932531944818,-28580.773303600945
15938.000790834521,5294.927095762146,-22540.50493723213,-30704.099619877295,-33740.44999366403,-34121.144905226814,-20504.797459220586,-28533.521715822426
15935.72091290008,5337.7306863940585,-22531.541887705553,-30672.829529384322,-33829.11936391823,-34067.388959811804,-20515.213372136757,-28404.798019504313
15913.838555078335,5355.835599402857,-22502.037585024547,-30642.051177269364,-33845.27967515942,-34052.74856719358,-20526.188078664312,-28439.73379608796
15914.9561423011,5315.557755894394,-22501.67995711326,-30671.86840437274,-33749.25658097942,-34106.66097481978,-20518.16380240486,-28572.36904768575
15932.569316931882,5283.460650856573,-22544.572954722997,-30709.240521102016,-33722.255673677406,-34130.13030649785,-20500.93060742982,-28553.481823621016
15931.116453542289,5315.4236454276615,-22550.205594325733,-30689.12395109224,-33814.21075036654,-34084.95743095368,-20513.00054943568,-28424.825182536268
15916.565467901883,5351.8793406342675,-22494.21447446519,-30643.884020314697,-33840.608160568256,-34056.25779107306,-20519.974293705738,-28419.058432466798
15908.071805008865,5314.0154855269775,-22503.333986202953,-30668.180366537617,-33761.460633452014,-34102.011811973076,-20513.939322702805,-28552.096015464787
15934.156290788209,5285.360549135274,-22533.73235866217,-30703.496122777004,-33713.98552822894,-34131.627873376354,-20500.885903940907,-28568.36808542825
15939.788930390947,5313.85902331579,-22549.89266990336,-30688.878081903233,-33800.53148275989,-34089.98657345612,-20511.838258724005,-28445.29938045733
15927.24960175152,5360.574169227382,-22505.54680890403,-30636.999683022463,-33857.819003798846,-34046.22185781263,-20518.454375082776,-28405.53562707134
15919.448842936617,5336.76956138248,-22489.006518007103,-30646.722691860523,-33776.05632258133,-34081.42585532974,-20508.396090077887,-28517.562570281338
15936.413816978196,5296.089386473821,-22520.65658815582,-30690.04037261491,-33709.22460665996,-34135.53942865603,-20494.985043404704,-28573.397227930694
15942.895822870234,5304.583049366838,-22544.774120423095,-30692.49906450499,-33785.377000019194,-34109.16437019877,-20517.20267739328,-28469.461616213517
15919.493546425529,5342.20103528512,-22531.83246038347,-30659.35142747777,-33865.26213470246,-34057.062453873456,-20535.128776446436,-28404.32863287075
15912.005712033,5342.53631145195,-22501.25527396861,-30647.236781982992,-33804.01835489492,-34074.16153838176,-20522.05300594008,-28505.31381431983
15925.997904062022,5292.133127705232,-22518.30965498801,-30690.800331926388,-33717.13712419714,-34128.25275996361,-20503.43400280881,-28584.32723096934
15938.045494323433,5291.7084445605815,-22547.74690243565,-30704.904282677686,-33756.54324967185,-34111.98069000014,-20506.697357499284,-28495.59080548177
15934.893898355234,5349.15242781072,-22511.1123932734,-30652.265924485437,-33837.85889600025,-34048.524087491525,-20508.239627866704,-28385.62022276166
15907.557714886394,5343.273919018975,-22497.053146011014,-30644.062834270342,-33814.92600618911,-34074.72033199314,-20516.599180292986,-28474.378999993685
15908.608246875794,5289.629732326238,-22529.4184719823,-30692.722581949543,-33726.77072605738,-34139.36157695789,-20515.68275877032,-28599.79463813241
15926.087311039844,5282.052490955888,-22558.65455372984,-30711.140419380718,-33750.418871691094,-34131.493762909624,-20509.312511600558,-28527.151468652664
15928.903630841212,5332.8580061028015,-22533.352379006432,-30669.25325027147,-33843.826811769824,-34068.12656737883,-20528.26679089866,-28410.654176551605
15911.983360288545,5351.342898767341,-22501.434087924255,-30641.514735402434,-33832.583884308806,-34060.124642863826,-20529.742006032706,-28460.699732387035
15912.72096785557,5304.448938900106,-22512.766422363096,-30679.98208761002,-33732.98451101596,-34118.55210287,-20508.217276122246,-28578.85105357779
15925.819090106379,5283.214781667564,-22550.764387937117,-30711.140419380718,-33730.48111563696,-34137.9087135683,-20510.519505801145,-28545.50225085047
15924.0085988055,5325.10195077681,-22542.114262832914,-30678.037485842407,-33827.42063133963,-34084.666858275756,-20524.466994341255,-28416.465630109982
15898.728775826548,5351.588767956348,-22507.558465905007,-30643.280523214406,-33841.12225069073,-34062.06924463144,-20527.3950728649,-28433.855287296214
15890.257464677987,5305.074787744855,-22520.74599513364,-30683.491311489503,-33759.11370028421,-34117.81449530298,-20521.00247395068,-28573.68780060861
15915.537287656938,5273.000034451489,-22553.2230798272,-30716.30367234989,-33730.212894703494,-34142.60257990391,-20512.106479657472,-28563.763626070457
15927.316656984885,5317.48000591755,-22543.544774478054,-30686.08411384632,-33814.45661955555,-34086.343239109905,-20520.957770461773,-28425.04869998082
15906.86481080828,5350.292366777941,-22511.60413165142,-30647.08031977181,-33844.385605381205,-34053.195602082684,-20525.78574726412,-28414.63278706465
15901.835668305835,5315.825976827858,-22502.439916424744,-30664.87230835823,-33757.772595616894,-34109.11966670986,-20516.86740122645,-28551.51487010895
15919.851174336813,5271.122487917243,-22539.99084710966,-30706.69242223411,-33714.141990440134,-34143.451946193214,-20507.367909832945,-28582.114408268262
15933.016351820988,5298.481023130539,-22550.585573981476,-30694.466018017058,-33791.90370940015,-34102.52590209555,-20514.743985503195,-28453.144842761143
15916.274895223964,5341.888110862746,-22515.22511425318,-30651.751834362967,-33855.3379601643,-34058.82824168542,-20531.753663033684,-28405.245054393417
15906.685996852637,5320.162215252187,-22508.586646149954,-30663.151224035173,-33797.49164551397,-34100.62600381685,-20543.801253295096,-28544.228201416518
15933.508090199006,5285.718177046559,-22533.955876106727,-30705.50777977798,-33721.71923181048,-34148.12346078437,-20517.940284960307,-28599.504065454494
15946.941488616645,5310.238040714031,-22547.255164057635,-30690.01802087045,-33777.24096503746,-34103.5987858294,-20502.67404349733,-28460.07388354229
15925.707331384103,5347.856026632313,-22521.4165474673,-30651.282447729405,-33850.8899630177,-34057.93417190721,-20525.696340286297,-28393.24216762092
15903.62380786226,5332.0309915579555,-22496.74022158864,-30648.577886650313,-33797.71516295853,-34082.923422208245,-20526.97038972025,-28506.096125375763
15906.194258474621,5271.8153919953575,-22532.45830922822,-30699.562215752867,-33718.52293235337,-34140.83679209194,-20512.4417558243,-28595.48075145254
15926.132014528754,5274.497601329995,-22553.84892867195,-30708.03352690143,-33757.705540383526,-34127.22457971866,-20516.35331110398,-28502.072811373808
15923.539212171938,5335.048477059421,-22517.393233465344,-30651.01422679594,-33842.2398379135,-34057.71065446266,-20528.15503217638,-28397.801923489802
15911.312807954886,5345.665555675692,-22481.809256292494,-30625.980273005996,-33800.93381416009,-34064.21501209915,-20511.994720935192,-28469.10398830223
15913.503278911505,5287.796889280902,-22511.827649095972,-30675.958773608065,-33721.33925215474,-34132.477239665655,-20508.709014500262,-28584.55074841389
15923.67332263867,5272.910627473668,-22554.65359147234,-30705.060744888873,-33751.603514147224,-34134.5559519,-20520.510735572665,-28528.134945408696
15912.832726577846,5319.804587340902,-22544.394140767356,-30667.509814203957,-33847.35838739376,-34070.36174182436,-20528.736177532217,-28402.71930726997
15894.124316468755,5335.629622415259,-22513.705195630217,-30638.787822578888,-33850.75585255097,-34068.61830575685,-20538.68270381483,-28458.06222654131
15904.450822407107,5296.424662640651,-22508.474887427677,-30665.229936269516,-33746.61907513369,-34119.42382090376,-20525.15989841937,-28581.08622802332
15926.757863373503,5276.241037397509,-22543.99180936716,-30697.751724451988,-33734.6608918501,-34129.95149254221,-20510.3406918455,-28541.523640337426
15928.590706418838,5315.267183216475,-22532.614771439406,-30667.487462459503,-33821.22919812551,-34072.37339882534,-20520.2425146392,-28407.524932327862
15905.389595674229,5339.697639906125,-22500.49531465713,-30633.803383565355,-33844.5867710813,-34060.72813996412,-20530.658427555376,-28432.357720417705
15904.249656707008,5305.834747056335,-22498.84128556744,-30657.339770476792,-33750.776499602376,-34117.523922625056,-20514.408709336367,-28561.08141673582
15924.254467994508,5274.85522924128,-22536.436919741263,-30695.53890175091,-33723.462667878,-34137.68519612375,-20501.24353185219,-28551.716035809048
15928.613058163293,5309.992171525022,-22540.32612327649,-30670.616706683246,-33804.01835489492,-34084.733913509124,-20508.82077322254,-28421.271255167874
15908.585895131338,5345.374982997773,-22506.239712982144,-30623.275711926904,-33841.03284371291,-34053.84380267189,-20519.25903788317,-28405.20035090451
15898.1029269818,5313.0543605154,-22497.34371868893,-30638.497249900967,-33758.15257527263,-34098.45788460468,-20506.116212143446,-28530.571285554324
15916.587819646338,5278.163287420665,-22534.827594140483,-30676.808139897366,-33709.20225491551,-34127.8057250745,-20494.649767237875,-28564.970620271044
15930.065921552889,5301.543212120916,-22542.78481516657,-30659.21731701104,-33783.074770340296,-34082.65520127478,-20503.076374897526,-28435.174040219074
15912.743319600026,5336.277823004463,-22508.31842521649,-30620.951130503552,-33850.062948472856,-34039.06929958693,-20522.72355827374,-28389.040039663323
15907.043624763923,5320.832767585846,-22487.26308193959,-30623.8792090272,-33775.4751772255,-34072.39575056979,-20515.92862795933,-28504.59855849726
15921.751072615514,5274.430546096629,-22520.902457344826,-30673.053046828874,-33709.55988282679,-34120.07202149296,-20505.356252831967,-28564.724751082034
15935.519747199984,5284.488831101517,-22546.159928579324,-30679.177424809626,-33770.96012484552,-34098.12260843785,-20514.25224712518,-28462.77844462138
15918.219496991576,5334.57909042586,-22520.723643389185,-30636.17266847762,-33850.465279873046,-34056.07897711742,-20534.882907257426,-28394.67267926606
15898.86288629328,5331.360439224296,-22498.41660242279,-30627.701357329057,-33801.00086939346,-34073.55804128147,-20526.501003086687,-28492.908596147132
15914.039720778434,5283.862982256768,-22512.49820142963,-30670.415540983147,-33712.30914739479,-34128.141001241325,-20500.997662663183,-28582.784960601923
15929.283610496952,5284.71234854607,-22541.868393643905,-30681.099674832785,-33754.95627581552,-34118.32858542545,-20500.327110329523,-28493.042706613865
15921.996941804522,5333.9755933255665,-22517.572047420985,-30636.418537666625,-33834.50613433196,-34054.58141023891,-20514.319302358545,-28382.96036517148
15904.450822407107,5335.651974159715,-22491.01817500808,-30620.5264473589,-33814.30015734436,-34059.275276574524,-20520.890715228405,-28457.615191652203
15917.638351635738,5292.021368982955,-22511.93940781825,-30657.74210187699,-33715.46074336299,-34111.53365511104,-20497.287273083602,-28566.289373193908
15938.604287934815,5286.5451915914055,-22531.87716387238,-30667.465110715046,-33719.752278298416,-34108.11383820937,-20481.059906609047,-28494.83084617029
15923.785081360948,5320.184566996642,-22523.40585272382,-30638.854877812253,-33827.063003428346,-34060.59402949739,-20505.646825509888,-28379.42878954754
15910.53049689895,5343.206863785608,-22489.475904640665,-30610.87049375421,-33829.99108195199,-34050.55809623696,-20518.655540782875,-28428.222647693474
15915.649046379216,5297.229325441042,-22497.16490473329,-30649.91899131763,-33734.63854010565,-34109.18672194323,-20513.11230815796,-28558.734483568012
15933.48573845455,5275.101098430288,-22528.79262313755,-30682.77605566693,-33711.14685668312,-34123.15656222779,-20487.206636334256,-28521.87645696121
15934.603325677315,5318.7093518625925,-22526.155117291823,-30650.36602620674,-33803.59367175027,-34064.93026792172,-20497.935473672806,-28392.504560053894
15912.899781811213,5343.3633259967955,-22494.50504714311,-30617.419554879616,-33831.95803546406,-34049.775785181024,-20515.123965158935,-28410.162438173586
15911.513973654983,5306.371188923263,-22489.632366851853,-30642.319398202828,-33736.73960408445,-34100.51424509457,-20500.93060742982,-28543.110614193753
15929.261258752496,5270.18371465012,-22531.117204560902,-30684.586546967814,-33707.03413570335,-34134.62300713337,-20500.260055096158,-28553.258306176464
15938.134901301253,5303.3313516773405,-22536.41456799681,-30663.128872290716,-33799.279785070394,-34085.67268677625,-20515.30277911458,-28420.935979001046
15920.09704352582,5340.256433517508,-22507.133782760357,-30620.14646770316,-33848.74419554999,-34049.6863782032,-20531.35133163349,-28403.94865321501
15909.323502698364,5311.1991657256085,-22501.2105704797,-30638.87722955671,-33769.931944600576,-34098.65905030478,-20522.410633851367,-28533.20879140005
15931.116453542289,5276.889237986713,-22530.156079549324,-30680.31736377685,-33711.30331889431,-34134.98063504465,-20503.72457548673,-28560.455567891073
15940.258317024509,5300.157403964688,-22549.199765825244,-30678.30570677587,-33784.41587500762,-34101.00598347258,-20509.78189823412,-28442.0136740224
15921.95223831561,5337.708334649603,-22519.74016663315,-30641.425328424615,-33855.87440203124,-34067.21014585616,-20527.506831587176,-28397.75722000089
15906.171906730166,5325.52663392146,-22507.46905892719,-30642.54291564738,-33796.06113386883,-34091.75236126809,-20520.6448460394,-28508.7783347104
15915.872563823768,5278.610322309772,-22536.45927148572,-30696.723544207045,-33728.29064468034,-34145.77652761657,-20503.456354553266,-28582.852015835288
15927.763691873992,5290.099118959799,-22551.680809459784,-30705.26191058897,-33775.69869467005,-34132.38783268784,-20507.032633666116,-28483.87849138719
15918.979456303055,5335.607270670805,-22529.574934193486,-30662.771244379433,-33855.5391258644,-34075.16736688225,-20520.041348939103,-28409.894217240122
15903.802621817902,5333.9755933255665,-22501.2105704797,-30655.05989254235,-33807.818151452324,-34087.50552982158,-20510.497154056688,-28501.625776484703
15910.731662599048,5282.745395034003,-22534.067634829004,-30708.994651913006,-33726.368394657184,-34156.05833006601,-20497.555494017066,-28605.494332968516
15934.648029166226,5290.501450359995,-22543.79064366706,-30704.345489066305,-33751.134127513666,-34130.13030649785,-20488.01129913465,-28516.73555573649
15927.20489826261,5340.971689340078,-22526.155117291823,-30661.698360645576,-33844.89969550368,-34061.55515450897,-20497.555494017066,-28409.96127247349
15914.9561423011,5351.856988889813,-22492.62750060886,-30642.051177269364,-33816.781200978905,-34064.57264001043,-20485.999642133673,-28479.810473896323
15918.800642347414,5302.124357476754,-22509.07838452797,-30684.050105100883,-33719.99814748742,-34126.71048959619,-20467.067714580025,-28593.60320491829
15938.939564101645,5292.021368982955,-22539.677922687286,-30707.474733290048,-33729.78821155884,-34121.636643604834,-20454.707199896242,-28530.236009387496
15926.19906976212,5327.203014755609,-22537.733320919673,-30682.485482989014,-33830.79574475238,-34067.88069818982,-20472.432133249302,-28406.34028987173
15904.964912529578,5345.196169042131,-22513.682843885763,-30657.518584432437,-33845.32437864833,-34056.771881195535,-20485.083220611003,-28456.877584085178
15914.173831245165,5308.829880813347,-22514.01812005259,-30682.35137252228,-33738.751261085425,-34101.0506869615,-20466.5312727131,-28586.003611803488
15938.224308279076,5287.528668347439,-22535.453442985232,-30717.13068689474,-33714.45491486251,-34113.61236734538,-20450.14744402736,-28556.40990214466
15944.952183360123,5329.751113623513,-22531.36307374991,-30685.659430701668,-33804.890072928676,-34053.79909918298,-20458.127016797902,-28422.500601112915
15922.511031926995,5360.1494860827315,-22493.320404686976,-30652.35533146326,-33829.67815752961,-34036.990587352586,-20468.47587448071,-28434.43643265205
15910.597552132316,5321.592726897326,-22493.320404686976,-30681.099674832785,-33751.625865891685,-34097.742628782114,-20470.174607059314,-28578.940460555612
15928.747168630025,5284.0194444679555,-22530.804280138527,-30721.712794508076,-33719.34994689822,-34124.52001863957,-20462.44090347778,-28585.623632147748
15934.29040125494,5312.070883759366,-22540.996675610146,-30708.189989112616,-33801.09027637127,-34075.368532582346,-20470.48753148169,-28458.710427130514
15910.86577306578,5343.8327126303575,-22515.22511425318,-30680.272660287937,-33852.25341942947,-34048.233514813604,-20495.34267131599,-28446.72989210247
15904.786098573935,5322.218575742076,-22495.533227388052,-30689.5933377258,-33769.6190201782,-34087.70669552168,-20483.04921186557,-28565.440006904606
15922.689845882636,5281.448993855595,-22522.355320734423,-30729.491201578523,-33707.637632803635,-34124.63177736184,-20460.38454298789,-28601.6498329222
15934.938601844146,5305.790043567425,-22541.466062243708,-30724.037375931428,-33778.78323540488,-34087.7961024995,-20464.005525589648,-28468.165215035107
15913.413871933684,5341.888110862746,-22515.73920437565,-30688.386343525213,-33854.93562876411,-34052.368587537836,-20488.078354368015,-28414.81160102029
15899.555790371394,5323.917308320679,-22497.522532644576,-30688.207529569572,-33795.9270234021,-34085.002134442584,-20490.738211958196,-28541.098957192775
15913.52563065596,5275.190505408109,-22525.842192869448,-30731.838134746333,-33715.32663289626,-34133.77364084407,-20477.640089707387,-28614.636196450734
15940.280668768964,5298.302209174897,-22534.2688005291,-30716.974224683552,-33762.89114509716,-34092.46761709066,-20473.99675536117,-28494.048535114354
15928.411892463195,5344.39150624174,-22506.84321008244,-30671.756645650465,-33845.32437864833,-34036.92353211922,-20487.184284589803,-28404.798019504313
15914.91143881219,5346.224349287075,-22475.103732955904,-30655.283409986903,-33794.07182861231,-34057.86711667384,-20473.929700127806,-28497.669517716113
15924.679151139158,5299.553906864394,-22503.378689691865,-30700.45628553108,-33712.107981694695,-34117.56862611397,-20464.206691289746,-28600.062859065874
15935.63150592226,5295.6423515847155,-22539.610867453917,-30725.423184087656,-33752.16230775861,-34112.2489109336,-20474.86847339493,-28524.15633489565
15937.48670071205,5353.153390068221,-22514.01812005259,-30678.68568643161,-33843.469183858535,-34048.524087491525,-20492.503999770164,-28413.045813208322
15922.9580668161,5364.821000673891,-22482.613919092884,-30656.26688674294,-33823.46437257104,-34052.12271834883,-20493.10749687046,-28478.44701748455
15921.728720871059,5313.702561104603,-22504.205704236712,-30692.20849182707,-33732.06808949329,-34107.57739634244,-20479.405877519355,-28594.56432992987
15941.10768331381,5294.792985295414,-22532.100681316937,-30714.493181049012,-33735.28674069485,-34108.56087309848,-20469.19113030328,-28533.275846633416
15938.894860612734,5340.658764917704,-22517.16971602079,-30680.272660287937,-33823.911407460146,-34050.625151470325,-20480.165836830838,-28410.162438173586
15922.511031926995,5365.446849518639,-22487.665413339786,-30647.795575594377,-33838.8870762452,-34042.60087521087,-20491.900502669872,-28457.369322463197
15920.052340036911,5321.458616430595,-22486.54782611702,-30680.339715521302,-33735.28674069485,-34106.92919575324,-20474.95788037275,-28587.747047871002
15935.832671622358,5288.176868936643,-22524.54579169104,-30721.332814852336,-33713.40438287311,-34116.56279761348,-20471.314546026533,-28566.98227727202
15937.039665822944,5325.48193043255,-22523.785832379563,-30698.131704107727,-33813.204921866054,-34066.472538289134,-20487.09487761198,-28434.43643265205
15922.309866226897,5361.065907605399,-22487.35248891741,-30657.7868053659,-33839.17764892312,-34038.68931993119,-20482.646880465374,-28433.251790195918
15922.443976693628,5328.320601978374,-22485.58670110544,-30680.518529476947,-33749.43539493506,-34087.527881566035,-20470.91221462634,-28568.435140661615
15946.785026405458,5296.782290551936,-22518.466117199197,-30717.35420433929,-33712.30914739479,-34119.02148950356,-20469.05701983655,-28583.209643746573
15954.54108173145,5329.617003156782,-22520.902457344826,-30697.081172118327,-33789.847348910254,-34067.36660806735,-20474.510845483645,-28443.891220556645
15930.222383764076,5367.056175119421,-22494.706212843208,-30657.7868053659,-33836.271922143926,-34031.51440996103,-20480.76933393113,-28416.53268534335
15917.213668491087,5335.540215437439,-22495.26500645459,-30679.803273654376,-33771.742435901455,-34077.73781749461,-20480.14348508638,-28551.98425674251
15944.214575793098,5301.006770253989,-22510.866524084395,-30714.69434674911,-33704.19546415752,-34110.21490218817,-20461.390371488378,-28589.490483938516
15957.647974210737,5324.6996193766145,-22520.54482943354,-30702.69145997661,-33757.8172991058,-34074.49681454859,-20460.093970309972,-28460.744435875946
15937.844328623336,5366.519733252494,-22501.612901879897,-30659.709055389056,-33835.82488725482,-34027.06641281443,-20489.665328224342,-28407.457877094494
15923.785081360948,5349.845331888835,-22473.270889910567,-30658.479709444015,-33783.9241366296,-34060.54932600848,-20488.167761345838,-28522.994044183975
15934.312752999396,5300.067996986866,-22507.22318973818,-30705.731297222534,-33702.51908332337,-34123.49183839463,-20465.838368634984,-28599.66052766568
15948.819035150891,5305.298305189408,-22528.345588248445,-30709.88872169122,-33744.830935577265,-34097.519111337555,-20466.352458757457,-28495.233177570484
15944.371038004285,5359.277768048974,-22499.064803011992,-30658.233840255005,-33828.49351507348,-34034.2860262735,-20484.39031653289,-28406.80967650529
15924.634447650249,5355.589730213849,-22482.77038130407,-30646.566229649336,-33793.289517556375,-34050.55809623696,-20486.737249700698,-28497.110724104732
15933.373979732274,5304.650104600204,-22504.1610007478,-30692.811988927366,-33712.957347984004,-34117.79214355852,-20486.58078748951,-28603.057992822887
15954.406971264718,5301.677322587648,-22529.530230704575,-30712.12389613675,-33738.84066806325,-34106.683326564234,-20489.486514268698,-28529.27488437592
15934.603325677315,5336.478988704561,-22525.037530069058,-30680.630288199223,-33835.75783202146,-34055.34136955039,-20504.6409970094,-28420.91362725659
15919.359435958797,5349.6441661887375,-22493.87919829836,-30657.11625303224,-33828.717032518034,-34059.007055641065,-20514.67693026983,-28486.001907110443
15920.857002837301,5303.666627844171,-22505.233884481655,-30694.17544533914,-33740.15942098611,-34119.31206218148,-20498.181342861815,-28602.633309678236
15940.973572847079,5289.696787559604,-22529.64198942685,-30718.583550284333,-33733.27508369387,-34114.28291967904,-20484.971461888726,-28552.36423639825
15934.603325677315,5328.186491511642,-22529.910210360315,-30691.761456937966,-33812.35555557675,-34064.952619666175,-20489.598272990977,-28424.691072069538
15915.62669463476,5351.074677833877,-22497.34371868893,-30659.6867036446,-33831.801573252866,-34056.615418984344,-20503.992796420192,-28456.274086984886
15915.269066723475,5314.373113438262,-22500.07063151248,-30687.425218513636,-33728.760031313905,-34107.44328587571,-20487.743078201187,-28584.75191411399
15940.079503068866,5288.042758469911,-22532.32419876149,-30720.88577996323,-33698.51812106587,-34125.79406807352,-20472.365078015933,-28560.07558823533
15931.25056400902,5314.7754448384585,-22536.146347063346,-30706.40184955619,-33805.00183165095,-34088.06432343296,-20502.316415586047,-28440.449051910527
15912.318636455375,5350.292366777941,-22498.55071288952,-30661.340732734294,-33847.69366356059,-34054.15672709426,-20517.649712282386,-28445.142918246143
15920.141747014732,5326.308944977396,-22481.98807024814,-30673.7906543959,-33741.29935995333,-34098.502588093594,-20491.989909647695,-28569.284506950917
15936.972610589579,5283.706520045581,-22520.54482943354,-30717.8012392284,-33699.34513561072,-34128.09629775242,-20482.132790342905,-28586.65181239269
15945.935660116156,5315.177776238654,-22528.099719059435,-30704.233730344025,-33781.398389506154,-34085.73974200961,-20494.940339915793,-28458.44220619705
15924.075654038867,5356.282634291963,-22498.237788467144,-30659.932572833608,-33845.34673039278,-34048.21116306915,-20515.191020392303,-28428.53557211585
15914.218534734075,5333.908538092201,-22483.083305726446,-30667.062779314852,-33767.003866076935,-34080.755302996076,-20497.309624828056,-28546.061044461854
15932.43520646515,5289.495621859506,-22515.44863169773,-30710.671032747156,-33696.327650109255,-34126.24110296263,-20484.882054910908,-28592.217396762062
15946.293288027442,5304.940677278123,-22534.93935286276,-30709.709907735578,-33768.36732248871,-34096.78150377053,-20497.935473672806,-28483.45380824254
15928.076616296366,5350.7617534115025,-22508.296073472033,-30662.279506001414,-33842.150430935675,-34048.54643923598,-20507.792592977596,-28419.72898480046
15915.872563823768,5344.324451008374,-22485.765515061084,-30656.669218143135,-33785.73462793048,-34074.34035233741,-20493.889807926396,-28517.22729411451
15930.043569808433,5291.172002693654,-22511.917056073795,-30706.088925133816,-33703.01082170139,-34132.2537222211,-20480.076429853016,-28597.604167175792
15955.882186398769,5310.461558158584,-22523.22703876818,-30703.40671579918,-33739.44416516354,-34097.675573548746,-20478.556511230054,-28492.64037521367
15942.895822870234,5361.311776794408,-22507.759631605106,-30661.988933323497,-33833.07562268682,-34041.70680543266,-20501.221180107736,-28400.81940899127
15921.192279004132,5351.365250511796,-22490.526436630065,-30657.518584432437,-33810.8803404427,-34061.21987834214,-20517.71676751575,-28499.32354680581
15932.569316931882,5302.90666853269,-22498.193084978233,-30697.863483174264,-33716.82419977477,-34118.52975112555,-20496.482610283212,-28605.069649823865
15946.427398494174,5293.831860283835,-22536.45927148572,-30723.299768364403,-33742.50635415391,-34119.28971043703,-20487.899540412374,-28533.70052977807
15944.795721148936,5349.264186532997,-22518.98020732167,-30675.44468348559,-33827.2865208729,-34051.96625613764,-20499.365985317945,-28415.415098120582
15922.57808716036,5362.876398906279,-22485.899625527814,-30651.55066866287,-33817.8317329683,-34051.89920090428,-20502.986967919704,-28473.484930215473
15927.696636640625,5321.212747241587,-22494.92973028776,-30687.581680724823,-33719.86403702069,-34110.527826610545,-20486.513732256142,-28596.397172975205
15944.147520559733,5295.61999984026,-22529.03849232656,-30718.069460161863,-33717.56180734179,-34118.99913775911,-20478.601214718965,-28547.759777040457
15947.947317117134,5346.224349287075,-22518.063785799004,-30680.652639943677,-33811.41678230963,-34061.041064386496,-20493.91215967085,-28420.734813300947
15922.287514482441,5369.961901898611,-22482.12218071487,-30648.01909303893,-33823.24085512648,-34046.713596190646,-20501.824677208027,-28456.899935829635
15917.727758613559,5325.8172065993795,-22489.386497662843,-30677.344581764293,-33735.19733371703,-34099.32960263844,-20488.167761345838,-28578.80635008888
15943.63343043726,5297.922229519157,-22521.528306189575,-30712.392117070212,-33711.63859506114,-34123.78241107254,-20481.886921153895,-28564.545937126393
15950.562471218405,5334.221462514575,-22519.807221866515,-30687.045238857896,-33794.317697801314,-34074.318000592946,-20494.11332537095,-28433.363548918194
15917.079558024356,5355.4556197471165,-22492.716907586684,-30648.68964537259,-33836.65190179967,-34041.12566007682,-20502.808153964063,-28427.239170937442
15915.112604512287,5324.319639720874,-22478.4564946242,-30662.726540890522,-33739.2653512079,-34089.53953856701,-20483.42919152131,-28547.290390406895
15936.547927444928,5285.76288053547,-22519.203724766223,-30705.7983524559,-33694.60656578619,-34121.9048645383,-20478.556511230054,-28575.006553531475
15935.698561155627,5306.058264500888,-22538.64974244234,-30705.060744888873,-33771.63067717918,-34088.80193099999,-20495.186209104802,-28460.520918431394
15908.764709086981,5343.810360885902,-22516.342701475944,-30668.001552581973,-33841.234009413005,-34056.72717770662,-20516.085090170516,-28428.312054671296
15898.996996760012,5323.693790876126,-22498.282491956055,-30674.93059336312,-33772.05536032383,-34089.919518222756,-20513.402880835878,-28548.69855030758
15921.348741215319,5283.013615967467,-22528.300884759534,-30717.242445617016,-33705.134237424645,-34137.41697519028,-20501.10942138546,-28603.929710856642
15934.960953588601,5300.291514431419,-22542.449538999743,-30707.050050145397,-33764.03108406438,-34101.94475673971,-20497.24256959469,-28483.789084409367
15917.660703380192,5343.586843441349,-22514.196934008236,-30663.44179671309,-33848.20775368306,-34053.329712549414,-20514.699282014284,-28411.838819007735
15902.57327587286,5334.802607870413,-22494.996785521125,-30658.010322810453,-33796.32935480229,-34077.804872727975,-20516.040386681605,-28522.234084872496
15914.732624856548,5286.366377635763,-22520.298960244534,-30703.272605332448,-33705.24599614692,-34134.66771062228,-20500.48357254071,-28611.52930397145
15929.730645386058,5292.37899689424,-22543.254201800133,-30711.632157758733,-33748.49662166794,-34119.267358692574,-20503.679871997818,-28521.764698238934
15922.645142393727,5344.033878330455,-22515.940370075747,-30660.424311211624,-33830.14754416318,-34053.79909918298,-20511.592389535,-28415.66096730959
15901.858020050291,5337.998907327522,-22491.532265130554,-30657.406825710157,-33804.08541012829,-34070.22763135763,-20511.838258724005,-28496.7754479379
15902.483868895039,5287.998054981,-22519.136669532858,-30703.652584988187,-33722.56859809978,-34128.61038787489,-20503.501058042177,-28608.578873703347
15921.929886571157,5277.2692176424525,-22556.866414173415,-30726.294902121415,-33733.722118582984,-34125.7046610957,-20494.403898048866,-28534.326378622816
15935.899726855723,5338.2000730276195,-22507.44670718273,-30665.654619414167,-33808.82397995281,-34043.65140720027,-20494.515656771142,-28401.825237491757
15904.182601473643,5335.473160204072,-22499.89181755684,-30657.92091583263,-33822.480895815,-34058.671779474236,-20517.515601815656,-28473.864909871212
15904.137897984732,5290.456746871084,-22514.59926540843,-30696.857654673775,-33730.05643249231,-34122.217788960676,-20511.1900581348,-28603.437972478627
15930.781177375458,5282.7900985229135,-22540.728454676682,-30718.80706772889,-33723.9097027671,-34130.3538239424,-20503.97044467574,-28560.343809168793
15927.540174429438,5320.430436185651,-22538.873259886892,-30691.8955674047,-33822.05621267035,-34076.061436660464,-20518.566133805052,-28429.720214571982
15903.914380540178,5343.765657396992,-22513.12405027438,-30663.397093224183,-33849.57121009484,-34061.26458183105,-20536.514584602664,-28462.577278921282
15905.836630563335,5311.065055258877,-22512.54290491854,-30684.988878368007,-33754.73275837097,-34114.171160956765,-20529.2949711436,-28601.71688815557
15935.229174522065,5283.572409578849,-22539.208536053724,-30715.968396183063,-33722.09921146622,-34136.254684478605,-20514.788688992106,-28591.122161283754
15943.96870660409,5319.312848962885,-22535.16287030731,-30685.771189423944,-33799.436247281585,-34082.38698034132,-20510.743023245697,-28441.05254901082
15919.493546425529,5350.627642944771,-22505.859733326404,-30650.25426748446,-33849.012416483456,-34058.62707598532,-20525.91985773085,-28431.016615750388
15914.263238222986,5327.113607777787,-22496.851980310916,-30665.565212436344,-33757.86200259471,-34104.49285560761,-20507.032633666116,-28558.622724845736
15931.988171576044,5287.171040436154,-22533.285323773067,-30711.922730436654,-33707.57057757027,-34139.18276300225,-20504.842162709494,-28596.687745653126
15958.676154455681,5324.811378098891,-22524.27757075758,-30688.31928829185,-33779.96787786101,-34083.63867803081,-20511.324168601535,-28460.543270175847
15939.386598990752,5367.950244897634,-22498.684823356252,-30647.72852036101,-33840.183477423605,-34044.321959533925,-20527.931514731827,-28411.458839351995
15923.248639494019,5343.765657396992,-22487.5089511286,-30655.976314065018,-33771.2730492679,-34081.40350358528,-20516.599180292986,-28537.522678079928
15937.754921645514,5299.240982442019,-22517.75086137663,-30698.8469599303,-33700.015687944375,-34128.96801578617,-20494.314491071047,-28601.560425944383
15950.473064240583,5315.982439039045,-22542.136614577368,-30697.88583491872,-33762.84644160824,-34092.17704441274,-20496.59436900549,-28477.374133750694
15936.659686167204,5365.11157335181,-22511.872352584884,-30652.042407040884,-33839.11059368975,-34043.31613103344,-20520.26486638366,-28401.91464446958
15923.472156938573,5353.712183679603,-22483.619747593373,-30642.989950536485,-33788.662706454124,-34073.692151748204,-20522.388282106913,-28508.152485865652
15933.44103496564,5301.990247010022,-22513.772250863585,-30685.12298883474,-33702.02734494535,-34116.36163191338,-20496.907293427863,-28591.256271750484
15948.77433166198,5301.498508632006,-22534.73818716266,-30699.115180863762,-33739.19829597453,-34096.98266947063,-20493.934511415304,-28496.864854915722
15935.095064055333,5342.715125407592,-22517.616750909896,-30662.59243042379,-33835.10963143226,-34047.674721202224,-20523.12588967394,-28404.9544817155
15908.474136409062,5339.25060501702,-22503.535151903052,-30657.518584432437,-33813.51784628843,-34071.859308702864,-20529.87611649944,-28491.67925020209
15919.359435958797,5296.402310896196,-22511.246503740134,-30695.091866861807,-33711.839760761235,-34130.71145185369,-20503.456354553266,-28598.252367764995
15940.68300016916,5286.947522991601,-22532.637123183864,-30706.915939678664,-33722.97092949998,-34120.40729765979,-20497.801363206072,-28526.726785508014
15939.766578646491,5332.478026447061,-22515.091003786445,-30662.659485657157,-33817.31764284583,-34050.78161368151,-20514.229895380726,-28406.72026952747
15913.570334144872,5336.814264871391,-22491.35345117491,-30642.20763948055,-33822.34678534827,-34055.430776528214,-20522.276523384637,-28466.935869090066
15914.777328345459,5289.965008493067,-22506.060899026503,-30676.472863730534,-33729.00590050291,-34119.6026348594,-20506.026805165628,-28589.646946149704
15929.14950003022,5270.5189908169505,-22538.98501860917,-30707.45238154559,-33716.62303407467,-34132.52194315457,-20499.23187485121,-28550.0396549749
15929.238907008043,5313.590802382327,-22530.2678382716,-30676.45051198608,-33810.20978810904,-34062.02454114253,-20515.01220643666,-28417.985548732944
15907.937694542134,5338.155369538709,-22499.623596623373,-30641.49238365798,-33836.22721865502,-34040.43275599871,-20524.221125152246,-28433.005921006912
15905.43429916314,5303.0407789994215,-22504.652739125817,-30665.74402639199,-33746.931999556065,-34100.76011428358,-20511.77120349064,-28567.295201694396
15920.253505737008,5263.679357013626,-22545.51172799012,-30712.280358347936,-33720.5569410988,-34139.20511474671,-20517.046215182094,-28577.286431465916
15933.239869265542,5305.700636589603,-22537.04041684156,-30682.8431109003,-33800.39737229316,-34076.6425820163,-20519.236686138713,-28437.364511175696
15913.413871933684,5347.67721267667,-22505.54680890403,-30639.614837123736,-33833.81323025384,-34044.09844208937,-20523.461165840767,-28423.461726124493
15904.80845031839,5316.496529161516,-22498.84128556744,-30657.853860599265,-33754.95627581552,-34093.27227989105,-20516.375662848433,-28552.096015464787
15920.767595859481,5271.681281528626,-22529.239658026658,-30700.992727398007,-33703.56961531277,-34137.12640251236,-20509.424270322834,-28586.40594320368
15932.77048263198,5299.911534775679,-22536.83925114146,-30680.83145389932,-33771.183642290074,-34089.45013158919,-20501.623511507933,-28448.763900847902
15921.840479593335,5349.554759210916,-22496.06966925498,-30630.562380619336,-33842.41865186914,-34031.15678204975,-20519.080223927525,-28396.70668801149
15918.644180136227,5337.663631160693,-22473.025020721558,-30628.90835152964,-33761.23711600746,-34064.14795686578,-20507.993758677694,-28511.01350915593
15926.132014528754,5284.533534590428,-22508.11725951639,-30676.606974197268,-33688.906870950086,-34119.84850404841,-20491.05113638057,-28574.447759920095
15946.24858453853,5303.1525377216985,-22525.775137636083,-30673.433026484614,-33743.95921754351,-34089.51718682256,-20488.52538925712,-28466.377075478686
15928.613058163293,5346.8278463873685,-22503.892779814338,-30635.09978474376,-33827.21946563953,-34042.62322695532,-20508.574904033532,-28393.37627808765
15912.899781811213,5338.445942216628,-22479.55173010251,-30626.53906661738,-33778.42560749359,-34064.75145396608,-20509.088994156005,-28489.86875890121
15921.326389470863,5287.975703236545,-22506.84321008244,-30673.16480555115,-33698.987507699436,-34117.434515647234,-20504.01514816465,-28584.014306546964
15938.872508868279,5288.601552081293,-22534.157041806822,-30685.279451045928,-33736.091403495244,-34102.972936984654,-20499.120116128935,-28498.943567150065
15938.559584445906,5347.207826043109,-22505.50210541512,-30637.804345822853,-33811.0815061428,-34037.97406410862,-20497.77901146162,-28386.022554161857
15922.689845882636,5352.147561567732,-22474.142607944323,-30622.605159593244,-33786.38282851969,-34046.44537525718,-20499.164819617847,-28457.21286025201
15930.155328530709,5300.649142342704,-22490.63819535234,-30658.144433277183,-33699.36748735517,-34107.599748086905,-20490.134714857904,-28572.70432385258
15955.166930576199,5293.80950853938,-22517.92967533227,-30674.39415149619,-33713.73965903994,-34105.006945730085,-20491.542874758587,-28514.29921559086
15952.574128219383,5341.798703884924,-22505.45740192621,-30639.145450490174,-33808.108724130245,-34048.233514813604,-20508.15022088888,-28392.99629843191
15933.77631113247,5362.496419250539,-22479.395267891323,-30611.49634259896,-33818.05525041286,-34043.74081417809,-20524.466994341255,-28441.991322277943
15931.00469482001,5312.33910469283,-22500.383555934855,-30654.344636719783,-33736.58314187326,-34108.40441088729,-20517.269732626646,-28577.532300654926
15944.05811358191,5285.673473557648,-22533.79941389554,-30691.44853251559,-33722.16626669958,-34127.76102158559,-20508.10551739997,-28554.040617232396
15955.904538143222,5340.278785261963,-22516.677977642772,-30652.60120065227,-33797.24577632496,-34061.041064386496,-20507.3902615774,-28412.39761261912
15936.167947789187,5371.101840865832,-22479.149398702313,-30613.709165300035,-33817.965843435035,-34037.86230538634,-20515.01220643666,-28420.77951678986
15928.389540718741,5326.532462421949,-22479.998764991615,-30646.610933138247,-33734.16915347209,-34101.56477708397,-20516.800345993084,-28567.809291816866
15940.280668768964,5280.197296166098,-22528.434995226264,-30694.6448319727,-33708.01761245938,-34135.338262955935,-20512.799383735586,-28580.52743441194
15950.62952645177,5319.8269390853575,-22529.150251048835,-30665.96754383654,-33785.01937210791,-34072.93219243672,-20507.233799366215,-28431.754223317414
15940.750055402525,5365.737422196558,-22485.430238894252,-30615.430249623092,-33816.133000389695,-34031.804982638954,-20507.949055188783,-28396.594929289215
15927.71898838508,5332.813302613891,-22477.83064577945,-30635.233895210495,-33741.72404309798,-34086.32088736545,-20512.553514546576,-28531.755928010458
15942.359381003307,5290.389691637718,-22520.74599513364,-30678.21629979805,-33698.0040309434,-34127.738669841136,-20511.14535464589,-28573.196062230596
15958.273823055486,5318.016447784477,-22517.70615788772,-30659.530241433415,-33757.45967119452,-34083.86219547537,-20504.01514816465,-28443.62299962318
15932.703427398614,5352.482837734561,-22497.813105322493,-30625.801459050355,-33826.10187841676,-34045.01486361204,-20509.15604938937,-28387.184844873533
15913.413871933684,5330.354610723807,-22493.990957020636,-30631.232932952993,-33774.134072558176,-34069.288858090506,-20509.4913255562,-28507.146657365163
15934.53627044395,5289.383863137229,-22512.60996015191,-30673.008343339963,-33694.13717915263,-34116.58514935793,-20495.588540505,-28575.69945760959
15941.532366458461,5298.615133597271,-22531.117204560902,-30682.619593455744,-33740.718214597495,-34100.51424509457,-20505.66917725434,-28475.02720058289
15930.1106250418,5350.851160389324,-22507.02202403808,-30635.12213648822,-33824.15727664915,-34047.40650026876,-20520.890715228405,-28392.124580398155
15914.978494045556,5346.291404520441,-22483.41858189328,-30621.688738070578,-33783.96884011851,-34061.84572718689,-20514.699282014284,-28480.793950652358
15920.544078414927,5290.680264315637,-22507.40200369382,-30672.851881128776,-33696.23824313143,-34126.37521342936,-20503.72457548673,-28583.79078910241
15940.235965280053,5290.680264315637,-22531.94421910575,-30680.809102154864,-33731.03990924834,-34109.767867299066,-20510.497154056688,-28501.53636950688
15937.710218156602,5342.983346341056,-22507.625521138376,-30634.11630798773,-33824.537256304895,-34043.271427544525,-20519.236686138713,-28380.389914559117
15917.10190976881,5351.208788300609,-22483.083305726446,-30617.86658976872,-33804.71125897304,-34057.062453873456,-20518.946113460795,-28453.23424973896
15930.82588086437,5309.634543613737,-22492.538093631043,-30652.869421585732,-33703.68137403505,-34111.66776557777,-20504.283369098113,-28573.26311746396
15945.801549649424,5297.788119052425,-22523.249390512632,-30675.15411080767,-33705.894196736124,-34112.628890589345,-20489.978252646717,-28509.225369599506
15946.62856419427,5351.007622600511,-22505.88208507086,-30635.390357421682,-33799.011564136934,-34051.40746252626,-20495.610892249453,-28384.323821583253
15925.170889517176,5373.001739144533,-22476.109561456393,-30608.18828441957,-33804.71125897304,-34042.60087521087,-20508.172572633335,-28426.434508137052
15924.254467994508,5328.745285123025,-22487.844227295427,-30644.331055203806,-33715.95248174101,-34109.27612892105,-20509.35721508947,-28565.954097027075
15936.34676174483,5291.417871882662,-22531.430128983277,-30687.201701069083,-33704.91071998009,-34131.650225120815,-20505.87034295444,-28543.669407805137
15939.096026312833,5326.5771659108605,-22523.539963190553,-30658.747930377478,-33801.40320079365,-34074.02742791503,-20522.567096062554,-28416.756202787903
15926.467290695584,5369.984253643067,-22475.841340522926,-30608.858836753232,-33819.55281729136,-34044.4337182562,-20519.81783149455,-28418.253769666408
15922.15340401571,5337.127189293765,-22475.707230056196,-30629.131868974197,-33726.74837431293,-34093.98753571362,-20507.792592977596,-28547.916239251645
15942.225270536575,5299.464499886572,-22517.236771254156,-30673.276564273427,-33687.40930407158,-34125.45879190669,-20499.790668462596,-28559.13681496821
15950.271898540486,5325.10195077681,-22519.918980588795,-30660.625476911722,-33771.56362194582,-34084.55509955348,-20510.117174400948,-28430.39076690564
15925.640276150738,5358.316643037396,-22502.08228851346,-30621.91225551513,-33840.69756754608,-34051.92155264873,-20536.26871541366,-28416.778554532357
15922.466328438084,5341.4857794625495,-22478.07651496846,-30624.63916833868,-33754.82216534879,-34087.50552982158,-20521.337750117513,-28538.059119946854
15945.510976971505,5305.298305189408,-22504.11629725889,-30665.54286069189,-33680.77083596836,-34124.38590817284,-20491.162895102847,-28568.301030194885
15959.77138993399,5322.732665864547,-22520.433070711264,-30655.708093131554,-33746.507316411415,-34078.430721572724,-20501.53410453011,-28446.215801979997
15939.163081546198,5361.468239005594,-22497.2096082222,-30612.658633310635,-33830.84044824129,-34028.78749713749,-20517.2920843711,-28388.771818729856
15922.399273204717,5340.926985851167,-22485.541997616532,-30619.587674091777,-33770.53544170087,-34068.88652669031,-20516.845049481995,-28509.851218444255
15928.076616296366,5287.506316602983,-22516.230942753667,-30673.567136951347,-33694.785379741836,-34130.64439662032,-20512.62056977994,-28594.631385163237
15944.594555448837,5297.81047079688,-22540.192012809755,-30677.188119553106,-33747.9154763121,-34108.11383820937,-20513.62639828043,-28488.63941295617
15939.073674568377,5348.0571923324105,-22506.39617519333,-30624.527409616403,-33826.95124470607,-34047.205334568665,-20520.15310766138,-28398.830103734745
15928.702465141114,5339.742343395036,-22485.2067214497,-30619.565322347324,-33788.72976168749,-34057.822413184935,-20521.20363965078,-28487.11949433321
15928.948334330124,5288.512145103472,-22525.842192869448,-30668.761511893455,-33717.87473176417,-34121.726050582656,-20522.67885478483,-28593.759667129478
15938.671343168182,5293.541287605916,-22534.514669718108,-30675.44468348559,-33741.612284375704,-34108.583224842936,-20514.364005847456,-28511.706413234046
15934.648029166226,5348.2360062880525,-22503.13282050286,-30627.857819540244,-33809.78510496439,-34046.423023512725,-20500.66238649635,-28384.726152983447
15915.872563823768,5350.627642944771,-22486.83839879494,-30612.77039203291,-33796.776389691404,-34055.00609338356,-20511.994720935192,-28459.515089930905
15920.275857481463,5295.463537629073,-22499.98122453466,-30652.60120065227,-33705.44716184702,-34112.003041744596,-20507.837296466507,-28585.8471495923
15940.05715132441,5279.1467641766985,-22536.83925114146,-30681.323192277338,-33712.91264449509,-34118.06036449198,-20509.938360445307,-28535.51102107895
15934.402159977219,5318.374075695762,-22530.759576649616,-30649.628418639713,-33810.79093346488,-34067.9924569121,-20532.178346178334,-28415.0574702093
15914.397348689718,5344.525616708472,-22496.092020999436,-30615.117325200717,-33819.083430657796,-34047.85353515787,-20537.140433447414,-28447.86983106969
15912.989188789034,5302.459633643584,-22510.419489195287,-30648.68964537259,-33732.29160693784,-34110.03608823253,-20520.086052428014,-28577.956983799577
15944.147520559733,5283.907685745679,-22527.004483581124,-30674.885889874207,-33700.52977806685,-34128.69979485271,-20490.917025913837,-28545.211678172553
15952.864700897302,5329.907575834701,-22518.75668987712,-30647.415595938637,-33782.73949417347,-34070.62996275783,-20501.221180107736,-28408.19548466152
15928.255430252007,5358.026070359478,-22496.561407633,-30613.30683389984,-33828.49351507348,-34045.2830845455,-20526.858630997973,-28424.221685435976
15931.742302387036,5328.320601978374,-22486.01138425009,-30626.337900917282,-33739.98060703047,-34095.21688165866,-20516.95680820427,-28560.07558823533
15936.100892555822,5284.824107268347,-22530.044320827048,-30672.78482589541,-33697.98167919894,-34129.23623671964,-20507.43496506631,-28571.206756974076
15941.174738547175,5314.261354715986,-22527.74209114815,-30654.098767530773,-33776.19043304806,-34075.726160493636,-20513.894619213894,-28434.48113614096
15925.528517428462,5357.623738959282,-22487.35248891741,-30602.06390643882,-33827.040651683885,-34033.906046617754,-20523.77409026314,-28398.09249616772
15922.533383671449,5339.451770717117,-22477.696535312716,-30605.506075084937,-33750.843554835745,-34071.00994241356,-20511.525334301634,-28517.562570281338
15937.77727338997,5293.563639350372,-22516.07448054248,-30657.987971065995,-33683.318934836265,-34116.60750110239,-20492.951034659272,-28562.8919080367
15945.220404293586,5313.411988426685,-22531.07250107199,-30653.45056694157,-33756.096214782745,-34081.291744863,-20506.20561912127,-28447.981589791965
15935.855023366812,5367.525561752983,-22493.990957020636,-30608.322394886305,-33833.74617502048,-34035.805944896456,-20527.126851931436,-28389.643536763615
15912.072767266365,5340.748171895525,-22489.051221496014,-30623.25336018245,-33779.789063905366,-34082.40933208577,-20527.77505252064,-28508.487762032484
15933.083407054355,5300.0456452424105,-22511.1123932734,-30661.65365715667,-33694.94184195302,-34131.024376276066,-20512.218238379748,-28589.646946149704
15950.026029351477,5307.600534868305,-22528.636160926362,-30665.766378136443,-33739.28770295235,-34102.19062592872,-20512.844087224494,-28488.281785044885
