Fp1,Fp2,C3,C4,P7,P8,O1,O2
14473.872122034089,4981.868562921115,-25408.814896203865,-32913.63661451777,-37322.786429260545,-36613.856150371575,-24541.008417726567,-33531.17061032899
14390.522466960248,4999.034702662791,-25395.806180930875,-32874.4093029987,-37550.32718781557,-36590.11859776003,-24688.105247986943,-33596.70592507195
14288.911436666422,5036.272708925332,-25338.719825592023,-32805.29770914289,-37607.190025709875,-36528.271320852204,-24685.870073541413,-33569.570907303205
14359.297079956184,5023.845139008181,-25336.5293546354,-32830.26460769947,-37379.64926715485,-36541.39179484747,-24530.078414687923,-33499.69935413592
14475.749668568335,4989.490507780374,-25385.30086103688,-32895.33053580887,-37293.28212657954,-36594.477187928824,-24509.89478944478,-33513.02099383128
14424.161842365485,4996.754824728349,-25395.962643142062,-32877.829119900365,-37507.27772799465,-36591.16912974943,-24663.183052919278,-33590.78271279129
14293.627654746493,5028.159025688055,-25348.420482685626,-32812.98670923552,-37615.61663336952,-36540.162448902425,-24696.50950390214,-33585.39594237756
14330.731550542301,5023.308697141254,-25332.88602028919,-32825.77190706395,-37412.774552437615,-36536.54146630067,-24556.43112140073,-33513.13275255355
14460.572834083181,4988.328217068698,-25375.555500454368,-32897.49865502103,-37275.35602752639,-36597.986411808306,-24497.824847438915,-33510.428191474464
14437.259964616296,4984.439013533475,-25394.68859370811,-32896.962213154104,-37461.88133500592,-36610.32457474763,-24635.24337235014,-33582.6243260651
14305.407024074439,5018.324258127721,-25354.20958449955,-32827.94002627612,-37625.11612476303,-36553.61819906452,-24708.914722074835,-33593.621384337115
14305.742300241269,5020.961763973447,-25336.082319746296,-32822.44149714011,-37468.2962856646,-36535.84856222255,-24589.82462761696,-33526.70026143792
14445.32894436466,4993.200897359955,-25378.97531735603,-32885.763989182,-37287.493024765616,-36584.86593781304,-24499.14360036178,-33500.436961702944
14462.29391840624,4986.115394367623,-25401.438820533614,-32898.66094573271,-37421.44702928627,-36607.46355145735,-24616.803183174514,-33567.51454681332
14330.21746041983,5020.8723569956255,-25367.464168961546,-32829.97403502155,-37627.64187188648,-36555.18282117639,-24720.336463491498,-33601.7797710633
14307.508088053239,5042.732363072916,-25324.705281818544,-32796.91580497215,-37497.286498223126,-36515.79904744614,-24593.11033405189,-33525.42621200397
14429.861537201588,5010.456444079452,-25369.341715495793,-32864.35101799381,-37290.46580677817,-36565.08464397009,-24493.712126459137,-33492.591499399125
14467.52422660878,4983.857868177637,-25412.055899149884,-32908.67452724869,-37384.074912557,-36608.804656124674,-24588.01413631608,-33554.3717210736
14340.611021591547,5002.722740497916,-25387.35722152677,-32854.56095392239,-37611.168636222916,-36572.57247836262,-24708.244169741174,-33599.902224529054
14287.771497699201,5035.155121702566,-25338.6304186142,-32804.2918806424,-37554.70812972881,-36523.91273068342,-24637.813822962504,-33546.839183192154
14407.956827635388,5017.609002305151,-25359.59635491328,-32849.46475618658,-37311.58820528844,-36548.99138796227,-24496.46139102714,-33484.991906284326
14472.329851666673,4978.26993206381,-25419.16375388667,-32907.109905136815,-37341.874819025375,-36604.31195548915,-24553.637153343818,-33533.58459873016
14367.544873660192,4994.296132838265,-25401.774096700443,-32863.79222438243,-37582.42429285339,-36577.31104818715,-24699.9293208038,-33595.96831750492
14286.832724432079,5030.304793155765,-25333.891848789677,-32802.23552015251,-37577.30574337313,-36517.34131781355,-24657.662172038818,-33550.66133149402
14363.342745702595,4997.537135784285,-25357.696456634578,-32856.17027952317,-37346.6133888499,-36553.28292289769,-24516.42149882573,-33494.89372907802
14455.633098558557,4959.919149866003,-25423.45528882209,-32920.09626866535,-37323.16640891629,-36620.24874928579,-24544.60704858387,-33534.92570339748
14383.32520524564,4984.886048422582,-25406.713832225065,-32881.7630269245,-37550.90833317141,-36599.32751647562,-24691.145085232867,-33597.51058787234
14278.808448172624,5024.538043086296,-25342.989008782984,-32814.17135169165,-37608.88875828848,-36538.03903317917,-24690.809809066035,-33572.67779978249
14331.826786020612,5005.203784132455,-25352.555555409857,-32845.173221251156,-37390.26634577112,-36552.70177754185,-24546.95398175168,-33505.890787350036
14447.899394977021,4969.440993003964,-25406.557370013878,-32914.597739529345,-37298.44537954871,-36611.91154860396,-24524.825754740927,-33520.285310779254
14409.968484636365,4981.6673972210165,-25404.501009523992,-32892.08953286285,-37506.60717566099,-36605.586004923105,-24668.256898910633,-33591.47561686941
14282.96587264131,5015.597345304173,-25365.36310498275,-32827.78356406493,-37641.87993310451,-36552.120632186015,-24718.41421346834,-33594.60486109315
14313.900686967456,5016.781987760304,-25343.6819128611,-32831.40454666669,-37440.40130858437,-36542.75525125924,-24576.525339666052,-33519.90533112351
14452.570909568181,4992.552696770751,-25382.730410424523,-32893.09536136334,-37281.27923980704,-36588.129292503516,-24506.474972543117,-33501.688659392436
14426.419368555471,4979.543981497763,-25423.142364399715,-32904.114771379805,-37468.02806473113,-36611.82214162614,-24647.626238778383,-33580.09857894165
14294.231151846785,5011.663438280039,-25377.07541907733,-32833.3491484343,-37638.39306096948,-36558.200306677856,-24727.33255950601,-33598.449361139465
14299.148535626953,5025.208595419955,-25332.126060977705,-32819.89339827221,-37491.206823731285,-36536.027376178194,-24610.879970893857,-33532.13173534057
14430.688551746434,4990.65279849205,-25386.73137268202,-32888.110922349806,-37298.69124873773,-36588.889251814995,-24514.476897058117,-33503.43209545995
14448.61465079959,4975.721833195906,-25420.057823664883,-32911.20027437214,-37428.66664274534,-36619.354679507574,-24625.095680367434,-33569.727369514396
14320.852079493055,5009.56237430124,-25377.187177799606,-32837.95360779209,-37624.62438638501,-36561.79893753516,-24725.142088549386,-33597.44353263897
14280.68599470687,5017.318429627232,-25342.54197389388,-32817.30059591539,-37530.47883873926,-36534.082774410585,-24630.661264736806,-33537.3173400542
14400.08901358712,4983.433185032986,-25381.12108482374,-32886.09926534883,-37313.421048333774,-36579.52387088822,-24513.76164123555,-33494.89372907802
14443.339639108139,4954.800600385738,-25428.931466213642,-32929.93103622568,-37389.86401437092,-36623.2438830428,-24600.642871933327,-33551.0189594053
14319.041588192176,4970.8044494157375,-25410.334814826827,-32882.34417228033,-37627.463057930836,-36591.392647193985,-24741.52591723513,-33607.054782754756
14255.875558361478,4996.911286939537,-25359.931631080108,-32837.95360779209,-37581.4184643529,-36552.56766707512,-24675.722381558702,-33562.01601767731
14367.276652726729,4979.096946608656,-25376.002535343476,-32884.55699498141,-37339.34907190193,-36582.317838945135,-24530.123118176834,-33503.27563324876
14447.966450210388,4955.985242841869,-25432.150117415207,-32933.99905371655,-37360.09149075645,-36628.608301712076,-24576.458284432687,-33542.30177906773
14347.003620505766,4973.173734328,-25411.050070649395,-32889.69789620613,-37588.41456036742,-36603.842568855594,-24719.017710568634,-33600.84099779618
14258.20013978483,5008.400083589564,-25357.31647697884,-32830.51047688848,-37604.954851264345,-36550.935989729885,-24694.006108523146,-33570.64379103706
14350.244623451785,4998.61001951814,-25359.931631080108,-32862.227602270556,-37367.735787360165,-36566.023417237215,-24541.27663866003,-33499.788761113734
14452.61561305709,4968.658681948028,-25415.632178262735,-32924.47721057859,-37324.84278975044,-36624.42852549893,-24552.921897521246,-33530.12007833959
14380.79945812219,4984.014330388824,-25418.381442830738,-32893.52004450799,-37558.68674024186,-36612.62680442653,-24707.953597063257,-33603.187930963984
14273.511084736716,5021.609964562651,-25362.613840414746,-32822.84382854031,-37632.40279345546,-36554.199344420354,-24716.201390767266,-33583.54074758777
14324.249544650263,5004.533231798796,-25355.34952346677,-32850.67175038716,-37410.382915780894,-36565.956362003846,-24567.897566306303,-33515.949072354924
14444.568985053182,4967.138763325067,-25404.880989179732,-32920.23037913208,-37307.05080116401,-36622.57333070914,-24529.81019375446,-33521.000566601826
14393.025862339242,4962.333138267176,-25434.921733727664,-32914.19540812915,-37520.107629312,-36630.95523487988,-24682.383201406385,-33596.482407627394
14271.275910291186,5002.074539908712,-25383.31155578036,-32837.97595953655,-37647.55727619616,-36570.5831731061,-24734.529821220618,-33598.6281750951
14294.029986146688,5002.208650375444,-25360.512776435946,-32840.54641014891,-37460.65198906088,-36560.927219501405,-24593.445610218718,-33523.079278836165
14427.156976122496,4965.194161557456,-25417.30855909688,-32913.971890684596,-37309.62125177637,-36616.24778702829,-24527.15033616428,-33511.23285427485
14418.506851018294,4964.79183015726,-25435.65934129469,-32915.491809307554,-37473.92892526733,-36626.574292966645,-24654.39881734834,-33579.78565451928
14283.88229416398,4997.760653228838,-25386.396096515193,-32847.92248581916,-37649.99361634179,-36574.94176327488,-24731.84761188598,-33597.59999485016
14276.372108026995,5010.903478968558,-25362.569136925835,-32830.95751177758,-37514.51969319817,-36549.460774595835,-24617.809011675003,-33531.125906840076
14409.588504980626,4975.74418494036,-25396.856712920275,-32900.58319575586,-37316.30442336851,-36603.82021711114,-24520.95890295016,-33502.13569428155
14438.869290217077,4962.60135920064,-25433.692387782623,-32924.99130070106,-37432.71230849175,-36634.039775614714,-24624.670997222784,-33566.32990435718
14306.792832230669,4993.245600848866,-25401.349413555792,-32859.67950340265,-37644.942122094886,-36585.91646980244,-24736.56382996605,-33603.94789027547
14277.668509205403,5023.845139008181,-25332.506040633445,-32814.46192436956,-37537.38552777595,-36540.587132047076,-24626.727357712673,-33530.902389395524
14400.80426940969,4994.631409005095,-25372.426256230625,-32875.77275941047,-37319.165446658786,-36583.70364710136,-24507.838428954892,-33486.310659207185
14457.354182881616,4969.776269170794,-25416.906227696687,-32913.74837324004,-37383.38200847888,-36624.87556038804,-24588.461171205185,-33542.34648255664
14342.17564370342,4992.060958392734,-25387.245462804494,-32861.13236679225,-37612.39798216796,-36588.2857547147,-24718.302454746063,-33591.98970699188
14268.861921890011,5014.569165059229,-25343.72661635001,-32818.44053488261,-37577.93159221788,-36544.074004182105,-24662.2219279077,-33545.9674651584
14366.874321326533,4987.970589157413,-25369.297012006882,-32872.10707331981,-37348.96032201771,-36578.92037378793,-24524.356368107365,-33492.032705787744
14457.980031726365,4962.735469667372,-25414.179314873138,-32920.878579721284,-37346.85925803891,-36623.86973188755,-24558.979220268637,-33530.18713357295
14358.26889971124,4973.553713983741,-25409.217227604062,-32885.875747904276,-37588.951002234346,-36605.36248747855,-24713.11685003243,-33600.14809371807
14253.707439149313,5001.001656174857,-25355.528337422413,-32828.14119197622,-37618.81293282663,-36554.33345488709,-24693.715535845226,-33571.806081748735
14338.398198890472,4991.904496181548,-25366.704209650066,-32862.67463715967,-37391.652153927345,-36569.84556553907,-24541.790728782504,-33502.22510125936
14455.521339836281,4965.417679002008,-25405.03745139092,-32921.5714837994,-37326.6085775624,-36622.12629582004,-24539.734368292615,-33521.04527009073
14388.734327403823,4978.292283808266,-25394.50977975247,-32889.51908225049,-37540.80534467761,-36609.028173569226,-24687.144122975365,-33590.84976802466
14262.782247398169,5001.381635830598,-25358.411712457146,-32836.366633935766,-37639.37653772552,-36562.96122824684,-24715.910818089345,-33587.38524763408
14317.208745146841,5000.152289885556,-25355.193061255584,-32854.69506438912,-37431.728831735716,-36566.73867305979,-24572.658487875284,-33515.14440955453
14452.660316546002,4977.912304152525,-25391.8946256512,-32910.79794297194,-37307.60959477539,-36614.63846142751,-24525.51865881904,-33511.09874380812
14406.056929356686,4973.464307005919,-25419.23080912004,-32907.400477814735,-37513.290347253125,-36622.97566210934,-24673.68837281327,-33585.64181156657
14271.275910291186,5005.22613587691,-25382.685706935612,-32842.714529361074,-37669.08200610662,-36572.14779521797,-24743.38111202492,-33597.063552983236
14299.662625749424,5015.150310415067,-25342.11729074923,-32838.15477349219,-37472.16313745536,-36557.79797527766,-24601.24636903362,-33520.575883457175
14431.292048846728,4982.002673387847,-25387.871311649244,-32902.013707401005,-37308.36955408687,-36611.79978988168,-24530.391339110298,-33508.66240366249
14411.935438148432,4959.293301021255,-25436.016969205975,-32927.584103057874,-37482.91432653837,-36645.305054820186,-24664.07712269749,-33588.01109647883
14286.296282565152,4995.346664827664,-25382.663355191155,-32850.15766026469,-37658.75550016826,-36585.40237967997,-24737.927286377824,-33602.852654797156
14283.368204041506,5016.603173804662,-25337.06579650233,-32820.54159886141,-37510.40697221839,-36547.96320771733,-24611.103488338413,-33520.03944159025
14405.453432256394,4972.145554083056,-25388.474808749535,-32898.37037305479,-37311.02941167705,-36606.994164823795,-24511.74998423457,-33492.07740927666
14435.583583782147,4957.661623676017,-25432.351283115302,-32923.694899522656,-37433.047584658576,-36637.459592516374,-24620.893552409834,-33560.80902347672
14318.706312025346,4997.425377062008,-25377.656564433168,-32847.81072709688,-37638.19189526938,-36580.39558892198,-24725.544419949583,-33588.525186601306
14273.421677758895,5022.436979107497,-25337.915162791633,-32811.757363290475,-37549.611931993,-36544.342225115564,-24641.41245381981,-33532.2658458073
14399.843144398112,5001.448691063963,-25358.679933390613,-32866.2062127836,-37321.35591761541,-36585.26826921324,-24508.821905710927,-33481.05799926019
14457.845921259634,4972.994920372358,-25405.529189768935,-32913.5695592844,-37375.89417408636,-36632.11752559156,-24579.252252489598,-33535.529200497775
14345.707219327358,4996.933638683991,-25390.441762261602,-32859.94772433612,-37618.6788223599,-36598.29933623068,-24728.696015917783,-33597.667050083524
14264.525683465683,5017.5866505606955,-25348.286372218892,-32812.07028771285,-37599.18810119487,-36552.16533567492,-24680.148026960855,-33554.86345945161
14373.535141174216,5002.365112586631,-25354.96954381103,-32854.180974266645,-37349.45206039573,-36578.07100749863,-24527.105632675368,-33490.31162146469
14463.076229462175,4972.234961060877,-25400.79061994441,-32911.51319879451,-37339.997272491135,-36632.095173847105,-24555.313534177963,-33528.64486320554
14378.340766232106,4993.111490382134,-25387.826608160332,-32865.446253472124,-37575.13762416096,-36606.05539155667,-24701.739812104683,-33588.01109647883
14276.886198149467,5022.213461662944,-25340.64207561518,-32803.95660447557,-37613.35910717954,-36549.50547808474,-24691.16743697732,-33555.95869492993
14354.133826987008,5007.461310322441,-25339.904468048153,-32834.84671531281,-37384.83487186848,-36560.770757290215,-24543.601220083383,-33487.651763874506
14471.838113288655,4977.308807052232,-25384.83147440332,-32898.83975968835,-37307.92251919777,-36615.443124227895,-24532.313589133453,-33505.13082803856
14402.212429310373,4980.393347787064,-25400.053012377386,-32883.84173915884,-37534.92683588587,-36612.62680442653,-24683.724306073706,-33578.377494618595
14272.840532403057,5006.589592288684,-25365.452511960568,-32822.41914539566,-37645.858543617556,-36567.498632371266,-24716.93899833429,-33574.465939338916
14318.371035858518,4998.542964284774,-25363.843186359787,-32840.68052061564,-37444.60343654197,-36569.64439983897,-24578.134665266833,-33507.32129899517
14452.257985145807,4977.420565774509,-25397.16963734265,-32902.46074229011,-37308.52601629806,-36618.72883066283,-24527.597371053384,-33503.0074123153
14425.391188310527,4986.674187979006,-25405.50683802448,-32890.39080028424,-37497.75588485669,-36619.2429207853,-24664.747675031147,-33570.755549759335
14291.101907623042,5019.508900583852,-25357.271773489927,-32823.6484913407,-37648.16077329645,-36565.19640269237,-24730.61826594094,-33580.23268940839
14291.861866934523,5014.524461570319,-25351.840299587286,-32828.11884023176,-37485.70829459528,-36559.60846657854,-24608.510685981597,-33517.22312178888
14429.034522656742,4987.478850779396,-25392.609881473767,-32891.97777414057,-37311.0070599326,-36607.552958435175,-24523.775222751527,-33496.234833745344
14434.488348303837,4982.293246065766,-25423.254123121995,-32903.198349857135,-37460.67434080534,-36628.25067380079,-24643.82644222098,-33563.0218461778
14312.805451489146,5016.536118571296,-25382.35043076878,-32836.88072405824,-37644.96447383934,-36577.847490054075,-24735.870925887935,-33588.2793174123
14285.893951164957,5022.258165151855,-25346.38647394019,-32814.77484879194,-37535.038594608144,-36553.171164175415,-24637.29973284003,-33529.69539519494
14408.09093810212,4987.478850779396,-25386.93253838212,-32880.623087957276,-37332.33062414296,-36603.57434792213,-24528.670254787237,-33495.452522689404
14457.801217770722,4978.873429164103,-25407.6973089811,-32901.00787890051,-37401.375162765406,-36628.787115667714,-24606.07434583597,-33545.43102329147
14333.346704643573,5008.511842311841,-25381.232843546015,-32838.668863614665,-37629.65352888746,-36582.80957732315,-24732.02642584162,-33588.391076134576
14276.237997560263,5030.461255366952,-25342.050235515864,-32805.610633565266,-37559.82667920908,-36546.75621351674,-24654.287058626065,-33533.07050860769
14387.125001803042,5002.745092242371,-25376.87425337723,-32867.16733779518,-37334.252874166115,-36589.04571402618,-24527.99970245358,-33486.82474932966
14449.15109266652,4971.966740127414,-25452.311390913892,-32921.81735298841,-37390.35575274894,-36643.02517688575,-24595.34550849742,-33544.58165700217
14352.658611852958,5004.644990521073,-25393.816875674354,-32859.277172002454,-37618.365897937525,-36601.83091185462,-24729.16540255134,-33593.59903259266
14275.522741737694,5035.423342636031,-25337.915162791633,-32801.72143003004,-37595.38830463747,-36548.16437341742,-24678.27048042661,-33545.051043635736
14373.26692024075,5014.010371447846,-25356.802386856365,-32846.93900906313,-37359.912676800814,-36575.92524003091,-24532.581810066917,-33482.175586482954
14464.707906807413,4983.522592010808,-25409.88777993772,-32903.37716381278,-37339.505534113116,-36629.144743579,-24561.370856925354,-33516.30670026621
14377.826676109635,4999.615848018629,-25408.07728863684,-32865.89328836123,-37582.89367948695,-36612.76091489326,-24721.297588503076,-33588.45813136794
14273.667546947903,5030.1483309445775,-25348.845165830277,-32801.07322944084,-37628.20066549786,-36557.55210608865,-24711.88750408739,-33562.708921755424
14343.650858837469,5012.6022115471615,-25346.319418706826,-32832.812706567376,-37399.54231972007,-36572.41601615143,-24560.342676680408,-33495.474874433865
14449.843996744634,4975.9677023849135,-25410.73714622702,-32903.44421904614,-37331.4142026203,-36631.335214535626,-24547.870403274348,-33512.797476386724
14403.151202577497,4995.011388660835,-25407.40673630318,-32873.40347449821,-37531.17174281737,-36615.95721435037,-24680.483303127683,-33576.38818936207
14284.172866841898,5029.723647799927,-25358.434064201603,-32807.287014399415,-37643.28809300519,-36558.5802863336,-24720.403518724863,-33570.44262533696
14328.78694877469,5030.99769723388,-25338.652770358654,-32815.8477325258,-37443.038814430096,-36557.10507119955,-24582.24738624661,-33498.04532504622
14449.911051977999,4990.071653136212,-25402.534056011922,-32889.31791655039,-37308.48131280915,-36611.91154860396,-24525.742176263593,-33492.97147905487
14420.585563252636,4980.952141398447,-25432.239524393026,-32892.06718111839,-37503.41087620388,-36622.372165009045,-24667.31812564351,-33567.38043634658
14295.59460825856,5018.927755228014,-25365.54191893839,-32813.232578424526,-37651.24531403129,-36555.741614787774,-24730.014768840643,-33568.4756718249
14296.063994892122,5017.1172639271335,-25350.16391875314,-32815.37834589223,-37495.52071041116,-36545.549219316155,-24607.817781903483,-33503.67796464896
14429.056874401198,4985.266028078321,-25389.234768061015,-32885.60752697081,-37308.10133315341,-36602.12148453254,-24520.623626783326,-33487.51765340778
14435.628287271058,4969.709213937427,-25424.41641383367,-32902.52779752348,-37442.055337674065,-36624.048545843194,-24638.394968318342,-33554.52818328478
14308.044529920166,5001.7392637418825,-25385.658488948167,-32831.203380966595,-37647.13259305151,-36578.00395226526,-24742.911725391357,-33586.80410227825
14289.269064577707,5023.33104888571,-25333.511869133934,-32794.1888921486,-37525.06971658108,-36538.79899249065,-24630.54950601453,-33513.89271186504
14417.411615539982,4996.5760107727065,-25379.020020844942,-32856.572610923366,-37313.04106867803,-36582.67546685642,-24513.873399957825,-33473.61486835657
14462.562139339703,4977.577027985696,-25416.526248040947,-32888.35679153881,-37405.24201455618,-36619.91347311896,-24606.29786328052,-33534.67983420847
14338.55466110166,5002.9686096869245,-25390.39705877269,-32830.37636642175,-37633.45332544486,-36580.39558892198,-24735.043911343088,-33585.1277214441
14285.06693662011,5030.28244141131,-25338.518659891924,-32791.21611013605,-37578.35627536253,-36540.877704725,-24663.987715719668,-33534.188095830454
14398.055004841686,5009.115339412134,-25360.490424691492,-32844.59207589532,-37345.093470226944,-36574.36061791905,-24528.51379257605,-33478.86752830357
14471.256967932817,4987.8811821795925,-25416.36978582976,-32893.45298927462,-37375.55889791952,-36618.460609729365,-24582.24738624661,-33523.19103755844
14364.41562943645,5007.5507173002625,-25390.8440936618,-32848.99536955301,-37607.30178443215,-36590.967964049334,-24726.863172872447,-33583.004305720846
14279.099020850543,5037.6585170815615,-25347.414654185137,-32795.39588634919,-37606.09479023156,-36539.08956516857,-24693.46966665622,-33545.98981690285
14374.27274874124,5021.788778518293,-25345.358293695248,-32834.51143914598,-37363.265438469105,-36563.296504413665,-24534.213487412155,-33476.788816069224
14467.837151031155,4981.935618154481,-25405.931521169132,-32900.02440214448,-37335.504571855614,-36625.099077832594,-24552.072531231945,-33510.718764152385
14388.779030892734,4993.916153182525,-25406.870294436252,-32867.39085523973,-37576.45637708383,-36608.938766591404,-24706.16545750683,-33581.28322139779
14281.155381340432,5029.611889077651,-25349.87334607522,-32794.74768575998,-37622.50097066176,-36545.70568152734,-24695.973062035213,-33548.09088088165
14341.393332647483,5012.155176658056,-25350.767415853432,-32824.22963669654,-37398.1788633083,-36560.368425890025,-24547.84805152989,-33480.47685390435
14457.711810792902,4978.091118108167,-25399.002480387986,-32890.122579350784,-37312.795199489025,-36618.929996362924,-24531.531278077517,-33497.553586668204
14410.303760803195,4990.719853725416,-25407.093811880808,-32867.92729710666,-37519.99587058972,-36613.207949782365,-24674.11305595792,-33565.45818632343
14280.283663306674,5019.37479011712,-25363.664372404146,-32806.68351729912,-37646.59615118458,-36562.13421370199,-24715.03910005559,-33564.65352352304
14322.528460327205,5020.671191295528,-25349.44866293057,-32816.92061625965,-37454.1923349133,-36558.31206540013,-24574.513682665074,-33491.45156043191
14447.832339743656,4984.08138562219,-25396.36497454226,-32881.40539901321,-37309.39773433182,-36613.76674339375,-24518.27669361552,-33486.10949350709
14432.09671164712,4987.568257757218,-25408.993710159506,-32874.69987567662,-37480.9473730263,-36618.99705159629,-24648.40854983432,-33553.47765129538
14293.337082068574,5013.965667958935,-25381.523416223936,-32816.853561026284,-37664.790471171196,-36573.95828651885,-24743.716388191748,-33580.053875452744
14296.242808847763,5021.8111302627485,-25344.240706472483,-32804.64950855369,-37502.807379103586,-36551.4277281079,-24617.674901208273,-33506.47193270587
14428.56513602318,4983.813164688727,-25378.72944816702,-32872.75527390901,-37302.938080184234,-36600.690972887394,-24506.13969637629,-33477.7499410808
14444.054894930709,4973.352548283643,-25407.809067703376,-32892.24599507404,-37434.20987537025,-36624.78615341022,-24619.57479948697,-33543.419366290495
14317.722835269313,5007.416606833531,-25373.677953920123,-32825.458982641576,-37641.432898215404,-36573.62301035202,-24730.17123105183,-33575.80704400624
14281.892988907455,5020.067694195234,-25339.658598859143,-32801.49791258549,-37537.89961789842,-36542.55408555914,-24633.052901393523,-33514.25033977632
14402.860629899578,4990.205763602944,-25382.88687263571,-32865.91564010568,-37324.52986532806,-36585.80471108016,-24512.57699877942,-33471.31263867768
14459.991688727343,4978.314635552721,-25414.380480573236,-32892.3130503074,-37394.73669466218,-36615.934862605915,-24587.500046193607,-33520.37471775708
14339.493434368782,5008.08715916719,-25392.587529729313,-32835.20434322409,-37633.49802893377,-36581.3343621891,-24731.244114785688,-33578.13162542959
14274.360451026017,5030.930642000513,-25346.900564062664,-32795.462941582555,-37585.26296439922,-36542.48703032578,-24672.190805934766,-33530.768278928794
14378.9442633324,4998.766481729327,-25375.82372138783,-32846.53667766293,-37357.92337154429,-36579.2332982103,-24530.681911788215,-33476.878223047046
14468.462999875905,4981.868562921115,-25416.258027107484,-32883.975849625574,-37365.90294431483,-36616.82893238413,-24568.568118639963,-33513.5574356982
14376.08324004212,5009.763540001338,-25389.502988994478,-32832.41037516718,-37587.96752547831,-36581.17789997791,-24704.75729760615,-33566.419311335005
14276.975605127289,5024.359229130653,-25347.6828751186,-32788.80212173487,-37609.73812457778,-36539.96128320233,-24684.238396196175,-33536.60208423163
14367.276652726729,5008.578897545207,-25345.514755906435,-32827.4482878981,-37376.31885723101,-36560.502536356755,-24539.130871192323,-33474.24071720132
14464.484389362859,4973.598417472651,-25406.244445591503,-32894.950556153126,-37334.252874166115,-36615.97956609483,-24548.116272463354,-33501.1075140366
14385.448620968893,4980.505106509341,-25412.279416594436,-32865.870936616775,-37569.013246180206,-36609.63167066952,-24702.097440015965,-33577.63988705157
14269.666584690403,5016.692580782483,-25372.78388414191,-32798.25690963947,-37650.08302331961,-36550.39954786296,-24715.307320989054,-33557.83624146417
14327.848175507568,5007.774234744816,-25354.187232755095,-32820.18397095012,-37422.92224442032,-36555.406338620945,-24563.583679626427,-33484.6566301175
14457.62240381508,4986.517725767819,-25386.709020937567,-32878.18674781165,-37307.72135349767,-36605.63070841202,-24525.47395533013,-33488.121150508065
14415.310551561184,4995.816051461226,-25398.26487282096,-32864.038093571435,-37515.7043356543,-36604.37901072252,-24668.16749193281,-33557.83624146417
14287.503276765738,5030.371848389131,-25357.405883956657,-32797.22872939453,-37648.563104696645,-36546.018605949714,-24719.151821035364,-33561.07724441019
14309.653855520948,5021.56526107374,-25353.20375599906,-32813.366688891256,-37468.72096880925,-36547.71733852832,-24584.504912436594,-33495.899557578516
14442.870252474577,4984.528420511297,-25370.97339284103,-32881.78537866895,-37311.677612266256,-36603.19436826639,-24513.113440646346,-33485.01425802878
14443.451397830415,4989.334045569187,-25381.657526690666,-32875.83981464384,-37465.03293097412,-36608.40232472448,-24626.30267456802,-33547.8673634371
14315.487660823783,5025.789740775793,-25339.43508141459,-32806.03531670992,-37630.41348819894,-36552.18768741938,-24699.34817544796,-33564.608820034126
14302.747166484258,5023.6886767969945,-25324.504116118445,-32807.421124866145,-37499.07463777955,-36543.738728015276,-24594.898473608315,-33512.663365919994
14422.306647575695,4982.092080365668,-25380.651698190177,-32885.13814033725,-37319.83599899244,-36602.36735372154,-24504.79859170897,-33494.87137733357
14452.749723523822,4979.499278008852,-25404.948044413097,-32898.593890499345,-37434.45574455926,-36625.41200225497,-24603.481543479153,-33556.94217168596
14324.897745239467,5012.736322013894,-25371.152206796673,-32830.130497232734,-37634.235636500794,-36574.539431874684,-24710.83697209799,-33589.95569824644
14280.663642962414,5024.694505297483,-25341.759662837943,-32804.67186029814,-37546.23681858025,-36543.96224545983,-24624.559238500507,-33534.03163361927
14413.56711549367,5003.236830620388,-25358.6352299017,-32860.3053522474,-37326.54152232904,-36581.28965870019,-24495.388507293286,-33486.444769673915
14470.586415599158,4983.8355164331815,-25395.582663486322,-32897.65511723222,-37376.67648514229,-36618.34885100709,-24558.465130146164,-33536.75854644281
14347.338896672594,5006.142557399578,-25381.255195290472,-32848.28011373045,-37610.58749086708,-36584.977696535316,-24696.68831785778,-33595.76715180482
14281.155381340432,5036.540929858796,-25325.19702019656,-32797.0946189278,-37573.66240902691,-36536.40735583393,-24637.947933429234,-33548.87319193759
14391.438888482917,5014.859737737148,-25349.24749723047,-32852.303427732404,-37339.013795735096,-36568.549164360666,-24493.08627761439,-33492.83736858814
14474.408563901015,4981.443879776464,-25410.826553204843,-32911.55790228342,-37349.29559818454,-36618.1923887959,-24536.269847902044,-33535.037462119755
14381.380603478028,5000.442862563475,-25388.944195383097,-32868.26257327349,-37582.647810297945,-36586.56467039164,-24681.042096739067,-33594.8283785377
14285.312805809119,5028.203729176967,-25341.469090160026,-32815.311290658865,-37606.832397798586,-36533.94866394385,-24660.053808695535,-33563.155956644536
14370.003565550276,5015.642048793084,-25345.738273350988,-32848.25776198599,-37368.9204298163,-36550.33249262959,-24505.31268183144,-33494.066714533175
14479.549465125736,4989.132879869089,-25398.756611198976,-32906.17113186969,-37311.52115005507,-36602.43440895491,-24504.642129497784,-33516.48551422185
14407.018054368265,4998.162984629033,-25399.87419842174,-32881.69597169113,-37536.04442310863,-36590.00683903776,-24657.84098599446,-33591.453265124954
14290.610169245027,5033.366982146142,-25348.375779196715,-32814.57368309185,-37623.752668351255,-36532.22757962079,-24678.941032760267,-33576.142320173065
14338.97934424631,5024.269822152833,-25343.72661635001,-32835.85254381329,-37415.05443037205,-36539.93893145787,-24534.682874045717,-33504.61673791608
14462.33862189515,4989.423452547008,-25391.536997739913,-32906.84168420335,-37305.32971684095,-36598.29933623068,-24500.41764979573,-33511.746944397324
14423.111310376085,4994.050263649257,-25410.848904949296,-32897.92333816568,-37515.63728042094,-36603.95432757787,-24649.660247523814,-33588.726352301404
14291.25836983423,5024.649801808572,-25373.096808564285,-32835.13728799073,-37660.76715716924,-36551.85241125255,-24708.445335441273,-33599.11991347312
14322.617867305025,5026.70616229846,-25334.74121507898,-32827.98472976503,-37448.38088135492,-36537.25672212323,-24556.34171442291,-33517.24547353333
14454.783732269256,4990.7645572143265,-25371.219262030037,-32898.63859398825,-37289.12470211085,-36593.1360832615,-24484.011469365534,-33506.76250538379
14445.95479320941,4983.500240266352,-25405.730355469033,-32907.400477814735,-37453.678244790826,-36610.14576079199,-24615.283264551552,-33578.802177763246
14307.329274097596,5014.189185403488,-25389.055954105374,-32847.274285229956,-37651.04414833119,-36564.65996082544,-24720.068242558034,-33610.00521302286
14296.689843736869,5029.23190942191,-25343.234877971994,-32825.25781694148,-37515.23494902074,-36539.78246924668,-24604.934406868746,-33541.83239243417
14432.275525602761,5004.980266687902,-25365.027828815917,-32880.35486702381,-37294.53382426904,-36578.98742902129,-24482.55860597594,-33498.49235993533
14459.18702592695,4990.384577558587,-25406.914997925163,-32904.22653010208,-37405.73375293419,-36607.30708924617,-24579.47576993415,-33556.76335773031
14333.033780221198,5020.8723569956255,-25381.03167784592,-32842.06632877187,-37627.35129920856,-36562.13421370199,-24700.376355692908,-33600.23750069589
14290.900741922946,5040.452485138475,-25337.19990696906,-32806.48235159902,-37542.459373767306,-36522.21399810481,-24615.73029944066,-33535.97623538688
14415.154089349997,5016.08908368219,-25362.703247392565,-32864.57453543837,-37315.70092626821,-36563.83294628059,-24486.716030444626,-33488.59053714163
14470.429953387971,4989.758728713838,-25412.145306127706,-32913.971890684596,-37375.782415364076,-36612.24682477079,-24557.28048769003,-33543.911104668514
14350.579899618615,5008.936525456492,-25394.75564894148,-32866.25091627251,-37616.06366825863,-36579.18859472139,-24701.78451559359,-33602.94206177498
14276.237997560263,5035.445694380485,-25354.522508921924,-32814.752497047484,-37588.90629874543,-36529.05363190814,-24643.73703524316,-33553.34354082865
14375.904426086478,5013.496281325374,-25361.540956680892,-32864.1051488048,-37345.652263838325,-36561.91069625744,-24497.89190267228,-33493.46321743289
14462.428028872971,4987.165926357023,-25416.83917246332,-32922.197332644144,-37349.362653417906,-36616.717173661855,-24536.962751980158,-33534.3669097861
14375.83737085311,5007.483662066897,-25400.097715866294,-32878.27615478947,-37578.57979280708,-36593.27019372823,-24683.187864206775,-33599.79046580678
14273.689898692359,5033.366982146142,-25351.281505975905,-32820.76511630596,-37608.84405479956,-36539.98363494678,-24668.36865763291,-33570.53203231478
14349.775236818223,5012.758673758349,-25363.50791019296,-32855.47737544506,-37392.36740974992,-36559.20613517835,-24526.412728597254,-33510.070563563175
14465.534921352259,4984.573124000207,-25404.07632637934,-32915.82708547438,-37312.32581285546,-36609.3410979916,-24512.822867968425,-33521.626415446575
14393.271731528252,4988.328217068698,-25422.538867299423,-32890.055524117415,-37539.307777799106,-36601.115656032045,-24668.212195421722,-33592.77201804781
14286.96683489881,5029.589537333195,-25353.226107743518,-32810.63977606771,-37630.43583994339,-36533.36751858801,-24686.69708808626,-33573.25894513833
14338.420550634928,5026.929679743013,-25337.62459011371,-32823.357918662776,-37419.72594496321,-36531.46762030931,-24541.656618315774,-33497.03949654573
14458.04708695973,4987.1212228681115,-25393.88393090772,-32901.47726553408,-37297.86423419288,-36597.829949597115,-24497.75779220555,-33503.67796464896
14427.33579007814,4993.6926357379725,-25408.88195143723,-32892.20129158512,-37498.76171335718,-36603.19436826639,-24637.67971249577,-33578.802177763246
14305.36232058553,5037.390296148097,-25360.22220375803,-32817.345299404304,-37638.95185458087,-36541.078870425095,-24694.341384689975,-33582.713733042925
14311.73256775529,5032.271746667832,-25338.40690116965,-32822.106220973285,-37470.285590921114,-36537.502591312244,-24568.72458085115,-33520.17355205698
14451.833302001156,5003.75092074286,-25371.286317263406,-32883.30529729191,-37286.95658289869,-36582.80957732315,-24480.70341118615,-33494.24552848882
14454.269642146784,4994.385539816087,-25393.906282652177,-32886.38983802674,-37437.67439576083,-36596.4888449298,-24600.1064300664,-33558.75266298684
14322.573163816114,5021.386447118098,-25359.909279335654,-32821.72624131754,-37637.11901153553,-36548.81257400663,-24700.331652203997,-33586.89350925607
14292.39830880145,5022.951069229969,-25349.694532119578,-32811.466790612554,-37518.27478626666,-36533.07694591009,-24602.609825445394,-33528.2648835498
14437.95286869441,5007.193089388978,-25356.645924645178,-32860.55122143641,-37296.500777781104,-36570.33730391709,-24482.89388214277,-33484.74603709531
14475.190874956952,4991.792737459271,-25392.92280589614,-32889.004992128015,-37395.45195048475,-36602.54616767719,-24581.308612979486,-33544.98398840237
14345.975440260821,5017.139615671589,-25377.656564433168,-32835.76313683548,-37626.30076721916,-36566.26928642622,-24709.562922664038,-33594.22488143741
14296.645140247958,5037.882034526114,-25336.59640986877,-32798.72629627303,-37548.80726919261,-36522.86219869402,-24619.21717157569,-33530.72357543988
14408.560324735681,5005.0249701768125,-25361.764474125444,-32859.9030208472,-37317.53376931355,-36562.91652475793,-24483.296213542966,-33475.738284079824
14478.655395347525,4985.400138545053,-25392.475771007037,-32898.32566956588,-37356.15758373232,-36598.50050193078,-24542.37187413834,-33519.525351467775
14368.505998671772,5006.187260888489,-25373.49913996448,-32847.31898871887,-37583.698342287345,-36567.208059693345,-24682.49496012866,-33574.68945678347
14292.01832914571,5036.384467647608,-25329.91323827663,-32793.89831947068,-37574.71294101631,-36520.98465215977,-24640.630142763872,-33536.93736039846
14384.845123868601,5009.227098134411,-25346.87821231821,-32845.26262822898,-37348.73680457316,-36557.10507119955,-24503.345728319375,-33483.6060981281
14478.454229647426,4976.526495996296,-25394.6438902192,-32903.958309168615,-37336.19747593373,-36613.92320560494,-24536.023978713034,-33525.13563932606
14396.937417618921,4999.817013718726,-25384.764419169955,-32857.53373593494,-37562.71005424381,-36576.61814410903,-24675.521215858607,-33578.64571555206
14288.866733177512,5028.628412321617,-25340.709130848543,-32801.67672654113,-37610.22986295579,-36529.14303888596,-24672.146102445855,-33555.98104667438
14354.491454898294,5011.015237690835,-25350.879174575708,-32835.29375020191,-37387.673543414305,-36545.839791994076,-24525.47395533013,-33490.021048786766
14460.058743960708,4970.469173248908,-25410.17835261564,-32909.1662656267,-37318.85252223641,-36607.86588285755,-24517.42732732622,-33510.562301941194
14413.924743404956,4988.864658935626,-25405.41743104666,-32878.36556176729,-37519.57118744507,-36592.62199313903,-24652.521270814093,-33574.60004980565
14293.582951257582,5025.052133208768,-25346.609991384747,-32811.4444388681,-37620.91399680543,-36534.79803023315,-24677.376410648398,-33563.0218461778
14324.74128302828,5008.578897545207,-25352.957886810054,-32835.20434322409,-37434.6345585149,-36543.626969293,-24547.602182340885,-33499.54289192473
14455.610746814102,4977.979359385891,-25395.02386987494,-32889.921413650685,-37289.70584746669,-36595.10303677357,-24491.164027591232,-33491.71978136537
14434.890679704033,4983.522592010808,-25404.344547312805,-32881.49480599103,-37479.98624801472,-36601.182711265414,-24629.789546703047,-33560.920782199
14303.238904862274,5015.172662159523,-25356.5341659229,-32816.786505792916,-37632.51455217774,-36550.82423100761,-24701.203370237756,-33576.52229982881
14313.96774220082,5019.710066283949,-25337.043444757874,-32813.858427269275,-37472.56546885556,-36537.793163990165,-24573.306688464487,-33508.617700173585
14444.926612964466,4988.03764439078,-25381.83634064631,-32886.143968837736,-37294.48912078013,-36591.392647193985,-24487.878321156302,-33489.1046272641
14445.373647853572,4975.408908773531,-25421.242466121017,-32905.54528302494,-37442.6364830299,-36622.12629582004,-24611.975206372168,-33565.07820666769
14319.041588192176,5009.987057445891,-25381.83634064631,-32835.85254381329,-37640.807049370655,-36567.2304114378,-24717.363681478942,-33593.73314305939
14297.248637348252,5024.985077975402,-25344.21835472803,-32814.1937034361,-37524.37681250296,-36538.10608841254,-24610.38823251584,-33530.008319617315
14428.363970323084,5000.50991779684,-25367.17359628363,-32873.87286113177,-37303.51922554007,-36582.25078371177,-24485.911367644236,-33489.01522028628
14468.842979531644,4984.729586211394,-25412.011195660973,-32903.757143468516,-37396.055447585044,-36613.65498467148,-24577.687630377728,-33546.66036923652
14346.154254216464,5012.84808073617,-25377.745971410986,-32845.240276484525,-37623.752668351255,-36573.19832720737,-24707.774783107616,-33593.93430875949
14288.889084921968,5035.75861880286,-25329.041520242874,-32809.5445405894,-37556.04923439613,-36534.59686453305,-24626.459136779205,-33540.290122066755
14404.648769456002,5010.925830713014,-25363.06087530385,-32870.31893376338,-37328.28495839655,-36577.24399295378,-24497.444867783175,-33494.89372907802
14469.312366165206,4979.499278008852,-25416.436841063125,-32917.771687242,-37376.005932808635,-36626.17196156645,-24563.53897613752,-33546.77212795879
14361.800475335178,4999.504089296352,-25390.82174191734,-32866.02739882796,-37598.40579013894,-36591.97379254983,-24705.338442961987,-33603.187930963984
14279.143724339454,5028.5613570882515,-25348.44283443008,-32812.651433068684,-37601.46797912932,-36538.28490236818,-24666.44640760975,-33558.93147694248
14374.384507463517,5009.294153367777,-25356.757683367454,-32855.63383765624,-37364.2712669696,-36563.25180092476,-24517.04734767048,-33496.61481340108
14481.650529104536,4990.8763159366035,-25394.800352430386,-32903.37716381278,-37321.80295250451,-36607.0388683127,-24526.211562897155,-33519.34653751213
14388.443754725904,4996.531307283796,-25397.773134442945,-32878.11969257828,-37561.23483910976,-36595.97475480733,-24678.538701360074,-33590.24627092436
14284.821067431101,5033.299926912776,-25343.279581460905,-32814.32781390283,-37614.43199091339,-36538.53077155719,-24675.40945713633,-33562.708921755424
14347.450655394872,5021.006467462357,-25356.578869411813,-32845.799070095905,-37397.01657259662,-36555.65220780995,-24529.56432456545,-33497.285365734744
14461.980993983865,4991.077481636701,-25406.132686869227,-32912.98841392856,-37315.2091878902,-36616.717173661855,-24512.621702268327,-33515.90436886601
14414.595295738614,5004.153252143055,-25405.126858368738,-32886.211024071104,-37524.488571225236,-36608.33526949111,-24660.277326140087,-33585.9770877334
14289.134954110976,5035.915081014047,-25362.12210203673,-32818.01585173796,-37639.35418598106,-36548.410242606435,-24701.382184193397,-33578.511605085325
14322.953143471856,5030.304793155765,-25351.10269202026,-32829.079965243334,-37450.861924989455,-36545.817440249615,-24561.706133092182,-33505.80138037221
14448.704057777413,4989.624618247106,-25396.78965768691,-32903.04188764595,-37299.652373749304,-36605.36248747855,-24496.304928815953,-33497.26301399029
14432.09671164712,4989.758728713838,-25415.296902095903,-32898.03509688796,-37477.773425313644,-36615.21960678334,-24626.34737805693,-33570.554384059236
14304.02121591821,5024.873319253125,-25372.381552741714,-32826.1965902086,-37643.668072660934,-36558.73674854478,-24705.1819807508,-33584.21129992143
14303.551829284648,5030.237737922399,-25349.87334607522,-32822.82147679585,-37486.42355041785,-36545.21394314933,-24587.053011304502,-33517.04430783323
14438.064627416687,5000.554621285752,-25393.995689629995,-32885.38400952626,-37310.67178376577,-36592.51023441675,-24497.89190267228,-33493.28440347724
14453.710848535402,4991.233943847888,-25414.380480573236,-32898.2139108436,-37438.85903821696,-36610.123409047534,-24597.781848643048,-33551.68951173896
14323.891916738978,5025.409761120053,-25370.01226782945,-32831.337491433325,-37625.8313805856,-36558.64734156696,-24695.816599824026,-33579.718599285916
14287.749145954747,5034.484569368908,-25340.44090991508,-32809.87981675623,-37525.89673112592,-36531.355861587035,-24601.53694171154,-33521.604063702114
14410.080243358641,5002.722740497916,-25379.087076078307,-32878.253803045016,-37318.13726641384,-36582.78722557869,-24488.682983956693,-33486.020086529265
14458.874101504578,4989.982246158391,-25413.709928239576,-32904.83002720237,-37393.35088650595,-36611.263348014756,-24564.9471360382,-33535.797421431234
14333.480815110304,5014.27859238131,-25393.16867508515,-32850.8058608539,-37620.757534594246,-36573.62301035202,-24699.482285914695,-33583.31723014322
14279.926035395389,5042.754714817371,-25336.931686035598,-32802.99547946399,-37560.139603631455,-36528.00309991874,-24627.39791004633,-33529.1142498391
14395.104574573586,5016.714932526938,-25361.987991569997,-32858.89719234672,-37332.48708635415,-36560.90486775695,-24485.777257177506,-33476.319429435665
14468.708869064913,4983.634350733084,-25414.738108484522,-32910.75323948303,-37359.62210412289,-36610.23516776981,-24542.684798560716,-33523.48161023636
14362.806303835667,5002.387464331086,-25406.31150082487,-32864.93216334965,-37601.937365762875,-36584.396551179474,-24695.235454468188,-33587.608765078636
14269.15249456793,5024.6274500641175,-25359.126968279717,-32814.57368309185,-37598.13756920547,-36536.452059322844,-24657.21513714971,-33552.56122977272
14367.097838771087,5012.021066191324,-25365.228994516016,-32846.82725034085,-37363.198383235744,-36552.50061184175,-24506.60908300985,-33487.428246429954
14462.38332538406,4973.061975605724,-25417.97911143054,-32912.54137903945,-37331.123629942376,-36609.20698752487,-24522.076490172924,-33516.68667992195
14385.783897135723,4984.908400167036,-25412.949968928096,-32885.94280313764,-37560.87721119848,-36596.73471411881,-24674.64949782485,-33584.814797021725
14275.902721393433,5021.073522695723,-25352.287334476394,-32818.038203482414,-37624.82555208511,-36538.66488202392,-24681.600890350448,-33562.06072116622
14335.760693044745,5010.121167912623,-25358.746988623978,-32841.5522386494,-37408.95240413576,-36550.310140885136,-24532.42534785573,-33494.17847325545
14464.774962040778,4984.751937955849,-25402.243483334005,-32901.90194867873,-37303.74274298462,-36601.9873740658,-24500.37294630682,-33501.35338322561
14419.959714407887,4989.6469699915615,-25402.243483334005,-32884.959326381606,-37504.9531465713,-36596.60060365208,-24642.865317209402,-33567.69336076896
14288.48675352177,5018.301906383265,-25362.099750292273,-32819.89339827221,-37631.46402018834,-36543.20228614835,-24693.089687000476,-33570.26381138132
14306.658721763937,5011.551679557762,-25366.59245092779,-32839.54058164842,-37464.988227485206,-36546.018605949714,-24568.165787239766,-33508.9082728515
14444.278412375263,4988.7081967244385,-25395.292090808405,-32896.42577128718,-37308.52601629806,-36595.48301642931,-24500.529408518007,-33497.57593841266
14435.04714191522,4990.026949647302,-25410.848904949296,-32892.06718111839,-37466.12816645243,-36607.2400340128,-24621.944084399234,-33561.63603802157
14299.774384471702,5019.531252328307,-25377.589509199803,-32828.36470942077,-37652.07232857613,-36557.507402599746,-24717.69895764577,-33585.55240458875
14290.900741922946,5024.962726230947,-25351.817947842832,-32818.038203482414,-37505.37782971595,-36539.8271727356,-24594.67495616376,-33519.6147584456
14423.491290031827,4996.419548561519,-25387.60309071578,-32879.39374201223,-37299.22769060465,-36585.80471108016,-24479.04938209646,-33485.550699895706
14437.371723338572,4977.353510541143,-25435.23465815004,-32907.13225688127,-37441.18361964031,-36621.20987429737,-24598.2065317877,-33555.534011785276
14317.186393402386,5012.021066191324,-25379.93644236761,-32838.31123570338,-37637.811915613645,-36570.80669055065,-24706.36662320693,-33586.98291623389
14278.9202068949,5026.259127409355,-25341.35733143775,-32809.49983710049,-37542.302911556115,-36538.687233768374,-24615.283264551552,-33528.48840099435
14393.808173395179,4994.6984642384605,-25386.75372442648,-32875.97392511057,-37332.24121716514,-36588.57632739262,-24496.03670788249,-33491.33980170963
14455.789560769745,4985.198972844955,-25420.616617276268,-32904.874730691285,-37388.03117132559,-36620.67343243044,-24568.18813898422,-33540.96067440041
14344.679039082414,5015.0609034372455,-25382.819817402342,-32837.43951766962,-37611.74978157876,-36574.45002489687,-24699.0799545145,-33586.02179122231
14277.467343505305,5040.273671182832,-25328.81800279832,-32789.91970895764,-37572.00837993722,-36529.63477726398,-24642.708854998215,-33537.563209243206
14391.572998949649,5027.264955909844,-25341.938476793584,-32830.26460769947,-37332.017699720585,-36547.76204201723,-24487.766562434026,-33469.81507179917
14463.72443005138,4992.195068859466,-25405.7974107024,-32893.58709974135,-37346.00989174961,-36604.15549327797,-24532.42534785573,-33514.25033977632
14358.760638089258,5001.515746297329,-25403.96456765706,-32864.328666249356,-37585.55353707714,-36588.464568670344,-24688.70874508724,-33583.138416187576
14265.352698010529,5029.6789443110165,-25349.67218037512,-32808.40460162218,-37607.41354315443,-36536.78733548967,-24662.40074186334,-33550.19194486045
14336.990038989788,5003.058016664746,-25372.31449750835,-32850.87291608726,-37381.951496833746,-36560.18961193438,-24518.90254246027,-33487.96468829688
14435.181252381952,4965.797658657749,-25437.51453608448,-32917.99520468655,-37335.32575789998,-36618.10298181808,-24528.692606531695,-33516.35140375512
14378.184304020919,4987.680016479495,-25424.7516900005,-32883.014724614,-37559.60316176453,-36601.67444964343,-24675.56591934752,-33582.75843653184
14273.421677758895,5030.6177175781395,-25346.297066962372,-32804.22482540904,-37625.07142127412,-36536.40735583393,-24681.958518261734,-33560.18317463197
14325.277724895208,5017.474891838418,-25347.01232278494,-32823.06734598486,-37413.579215238,-36539.64835877995,-24537.119214191345,-33485.52834815125
14447.675877532469,4979.789850686771,-25402.623462989744,-32893.542396252444,-37310.6047285324,-36602.456760699366,-24503.725707975114,-33495.8548540896
14417.165746350975,4993.357359571142,-25404.433954290624,-32872.576459953365,-37506.920100083364,-36599.97571706482,-24642.485337553662,-33565.994628190354
14280.753049940235,5019.37479011712,-25370.414599229647,-32813.38904063571,-37650.86533437554,-36554.02053046472,-24703.103268516454,-33575.717637028414
14308.35745434254,5023.442807607986,-25339.01039826994,-32810.706831301075,-37456.539268081106,-36540.20715239133,-24559.940345280214,-33500.77223786977
14440.18804313994,4992.217420603922,-25383.110390080263,-32873.42582624267,-37296.34431556992,-36587.25757446975,-24486.000774622058,-33481.348571938106
14426.531127277749,4982.874391421604,-25405.97622465804,-32881.49480599103,-37456.85219250348,-36603.10496128857,-24610.924674382768,-33550.43781404946
14295.482849536284,5013.8315574922035,-25382.77511391343,-32820.16161920567,-37652.3852529985,-36557.3285886441,-24712.289835487587,-33584.14424468807
14291.124259367498,5030.349496644676,-25346.87821231821,-32799.933290473615,-37513.4021059754,-36527.04197490716,-24596.306633508997,-33513.91506360949
14418.953885907398,4994.966685171925,-25387.133704082218,-32869.424863985165,-37306.939042441736,-36578.09335924308,-24488.258300812042,-33482.22028997187
14443.406694341505,4976.817068674215,-25418.56025678638,-32896.42577128718,-37420.91058741934,-36608.78230438022,-24587.455342704696,-33543.75464245732
14316.694655024368,5006.209612632944,-25385.613785459256,-32835.047881012906,-37639.60005517007,-36561.821289279615,-24707.394803451873,-33581.953773731446
14278.16024758342,5022.4593308519525,-25348.979276297006,-32802.21316840806,-37546.32622555807,-36523.95743417233,-24618.077232608466,-33523.68277593646
14404.04527235571,4997.000693917357,-25369.520529451434,-32859.18776502464,-37320.215978648186,-36565.66578932593,-24490.3817165353,-33478.24167945882
14465.937252752454,4985.489545522874,-25398.086058865316,-32893.967079397094,-37377.23527875367,-36605.384839223014,-24557.593412112405,-33530.03067136177
14348.8364635511,5008.176566145011,-25384.049163347383,-32844.45796542859,-37610.76630482272,-36573.5336033742,-24692.7767625781,-33586.71469530043
14277.40028827194,5030.707124555961,-25339.81506107033,-32789.875005468726,-37578.78095850718,-36530.81941972011,-24640.563087530507,-33542.25707557882
14380.307719744173,5011.015237690835,-25352.06381703184,-32837.17129673616,-37342.43361263676,-36556.52392584371,-24493.756829948048,-33479.58278412614
14460.975165483376,4980.393347787064,-25407.049108391897,-32895.59875674233,-37344.2664556821,-36611.173941036934,-24532.04536819999,-33522.22991254686
14375.815019108657,5004.443824820974,-25387.98307037152,-32849.77768060895,-37572.72363575979,-36585.447083168874,-24678.65046008235,-33585.9770877334
14272.639366702959,5031.489435611897,-25349.06868327483,-32793.56304330385,-37609.11227573303,-36534.350995344044,-24665.84291050946,-33558.55149728674
14349.21644320684,5013.809205747749,-25346.140604751185,-32829.68346234363,-37378.12934853189,-36554.44521360937,-24514.85687671386,-33492.27857497675
14455.342525880638,4980.236885575877,-25403.517532767957,-32892.3130503074,-37320.39479260383,-36606.72594389033,-24514.43219356921,-33513.9597670984
14394.434022239928,4992.619752004118,-25404.143381612706,-32861.110015047794,-37540.40301327741,-36589.313934959646,-24659.807939506525,-33575.82939575069
14283.59172148606,5029.433075122008,-25342.184345982594,-32789.025639179425,-37623.70796486235,-36525.63381500648,-24673.21898617971,-33552.851802450634
14328.988114474789,5017.5866505606955,-25337.311665691337,-32810.32685164533,-37418.138971106884,-36533.94866394385,-24526.368025108342,-33484.410760928484
14446.468883331881,4977.8452489191595,-25401.952910656084,-32889.78730318395,-37308.950699442714,-36598.00876355276,-24493.533312503496,-33497.15125526801
14401.966560121366,4972.45847850543,-25425.35518710079,-32890.614317728796,-37511.9045390969,-36609.38580148051,-24642.127709642376,-33577.50577658484
14284.418736030906,5018.301906383265,-25365.452511960568,-32811.93617724612,-37643.15398253846,-36547.40441410594,-24694.430791667797,-33574.06360793872
14301.07078565011,5019.218327905933,-25346.81115708484,-32815.311290658865,-37471.80550954408,-36542.91171347043,-24567.29406920601,-33508.48358970685
14429.369798823573,4983.70140596645,-25394.196855330094,-32883.8640909033,-37310.627080276856,-36599.12635077552,-24493.868588670324,-33495.56428141169
14432.990781425331,4979.141650097567,-25428.84205923582,-32887.44037001614,-37474.55477411208,-36614.99608933879,-24615.663244207295,-33565.592296790164
14321.343817871073,5028.360191388153,-25345.358293695248,-32795.41823809365,-37627.463057930836,-36547.31500712812,-24688.954614276245,-33574.041256194265
14303.976512429299,5037.211482192455,-25319.787898038376,-32779.39203731919,-37493.017315032164,-36526.97491967379,-24577.575871655452,-33511.277557763766
14431.269697102272,5005.628467277106,-25359.864575846743,-32845.374386951255,-37305.08384765194,-36576.372274920024,-24480.390486763776,-33486.042438273726
14466.67486031948,4994.921981683014,-25393.07926810733,-32866.07210231687,-37403.49857848866,-36600.62391765403,-24568.970450040157,-33539.865438922105
14341.572146603126,5024.314525641743,-25366.078360805317,-32814.23840692501,-37623.55150265116,-36561.3295509016,-24689.803980565546,-33582.579622576195
14286.87742792099,5039.960746760457,-25332.10370923325,-32783.21418562105,-37547.44381278084,-36524.38211731698,-24611.662281949793,-33527.706089938416
14398.457336241883,5005.695522510472,-25363.35144798177,-32839.562933392874,-37323.16640891629,-36565.75519630375,-24483.497379243065,-33482.108531249585
14468.820627787189,4988.372920557609,-25405.03745139092,-32882.67944844716,-37369.278057727584,-36608.24586251329,-24548.451548630186,-33532.33290104067
14363.432152680416,5016.200842404466,-25383.06568659135,-32828.610578609776,-37603.70315357485,-36572.95245801836,-24688.68639334278,-33585.82062552221
14285.983358142777,5042.28532818381,-25336.39524416867,-32781.64956350918,-37585.84410975505,-36527.46665805181,-24642.507689298116,-33541.54181975625
14381.201789522385,5023.643973308083,-25347.25819197395,-32826.509514630976,-37351.307255185515,-36555.51809734322,-24495.835542182394,-33480.61096437108
14473.067459233698,4997.403025317553,-25397.5943204873,-32877.85147164482,-37332.0624032095,-36606.3906677235,-24518.32139710443,-33512.37279324207
14383.436963967915,5013.876260981115,-25393.056916362875,-32843.87682007275,-37571.807214237124,-36589.38099019301,-24675.677678069795,-33583.16076793203
14280.820105173601,5042.799418306282,-25349.649828630667,-32782.90126119868,-37627.12778176401,-36536.4744110673,-24678.896329271356,-33563.37947408909
14364.41562943645,5038.127903715123,-25330.717901077023,-32803.218996908545,-37384.00785732363,-36542.91171347043,-24514.923931947225,-33484.81309232868
14472.039278988754,5000.398159074564,-25387.60309071578,-32867.92729710666,-37309.73301049865,-36597.74054261929,-24500.84233294038,-33502.76154312629
14414.818813183167,5010.881127224103,-25390.955852384075,-32844.79324159542,-37521.67225142387,-36585.78235933571,-24640.54073578605,-33568.229802635884
14291.68305297888,5035.311583913754,-25346.45352917356,-32784.24236586599,-37628.647700386966,-36532.36169008752,-24675.096532713957,-33563.33477060017
14334.620754077525,5024.426284364019,-25330.606142354747,-32801.09558118529,-37421.75995370864,-36533.859256966025,-24535.33107463492,-33494.983136055846
14458.628232315568,4989.959894413936,-25386.038468603907,-32871.01183784149,-37299.07122839346,-36589.3362867041,-24483.18445482069,-33494.44669418892
14437.215261127385,4996.978342172903,-25407.40673630318,-32862.07114005937,-37490.648030119904,-36591.07972277162,-24617.138459341346,-33560.563154287716
14299.617922260515,5022.302868640765,-25364.670200904635,-32805.92355798764,-37643.28809300519,-36548.87962923999,-24694.2296259677,-33579.76330277482
14315.487660823783,5023.889842497092,-25333.400110411658,-32803.218996908545,-37478.42162590285,-36534.46275406632,-24567.070551761455,-33512.57395894217
14450.983935711854,4997.3359700841875,-25372.15803529716,-32866.988523839536,-37293.46094053518,-36580.93203078891,-24478.736457674084,-33488.09879876361
14447.787636254745,4982.092080365668,-25422.605922532788,-32884.802864170415,-37449.72198602223,-36609.05052531368,-24605.62731094686,-33560.138471143066
14319.488623081283,5012.691618524983,-25363.55261368187,-32815.42304938115,-37643.13163079401,-36558.87085901152,-24697.805905080546,-33585.64181156657
14296.712195481325,5027.6225838211285,-25326.448717886058,-32784.17531063263,-37520.12998105645,-36526.81845746261,-24588.05883980499,-33516.4631624774
14419.8032521967,4991.390406059076,-25372.672125419635,-32848.36952070827,-37315.38800184584,-36574.67354234142,-24478.244719296064,-33479.33691493713
14468.977089998376,4985.2436763338665,-25403.517532767957,-32867.50261396201,-37409.757066936145,-36599.26046124226,-24569.52924365154,-33533.919874896994
14348.456483895361,5015.396179604075,-25369.431122473616,-32805.16359867616,-37621.629252628,-36554.5793240761,-24687.21117820873,-33571.35904685963
14282.563541241116,5026.3932378760865,-25347.72757860751,-32782.00719142046,-37568.27563861318,-36522.951605671835,-24621.63115997686,-33527.10259283812
14399.105536831086,5003.192127131478,-25383.132741824717,-32839.384119437236,-37341.740708558646,-36559.09437645607,-24487.498341500563,-33473.83838580112
14464.327927151673,4974.336025039676,-25423.812916733375,-32886.18867232665,-37385.237203268676,-36603.350830477575,-24542.595391582894,-33520.75469741281
14364.03564978071,5001.694560252972,-25382.998631357987,-32834.42203216816,-37606.05008674265,-36565.62108583702,-24677.957556004236,-33572.47663408239
14283.099983108043,5030.885938511603,-25332.23781969998,-32779.54849953038,-37594.22601392579,-36515.4190677904,-24635.601000261428,-33529.87420915058
14374.250396996786,5011.126996413112,-25353.7849013549,-32826.844790797804,-37370.86503158391,-36544.87866698249,-24495.41085903774,-33470.53032762174
14472.732183066868,4987.165926357023,-25400.25417807748,-32883.6629252032,-37346.18870570525,-36598.27698448622,-24512.442888312686,-33503.45444720441
14397.764432163767,5013.764502258838,-25382.35043076878,-32837.64068336972,-37569.996722936245,-36570.225545194815,-24648.341494600954,-33561.948962443945
14294.566428013615,5050.5778253767285,-25327.789822553375,-32773.781749460904,-37615.68368860289,-36514.52499801219,-24637.947933429234,-33536.2668080648
14368.12601901603,5046.107476485668,-25317.86564801522,-32793.87596772623,-37385.93010734679,-36521.1187626265,-24488.03478336749,-33468.51867062076
14491.06061352022,5016.178490660011,-25361.429197958612,-32856.080872545346,-37294.399713802304,-36575.0311702527,-24459.73747488707,-33479.62748761505
14427.916935433977,5009.8976504680695,-25378.751799911475,-32851.16348876518,-37512.239815263725,-36586.8328913251,-24615.327968040463,-33563.35712234463
14297.695672237358,5032.651726323572,-25341.089110504283,-32796.6922875276,-37635.80025861267,-36539.78246924668,-24663.294811641554,-33571.671971282005
14333.525518599216,5027.37671463212,-25331.656674344144,-32814.97601449204,-37435.059241659554,-36540.162448902425,-24517.71790000414,-33503.789723371236
14450.268679889285,4983.768461199816,-25395.917939653154,-32890.90489040672,-37301.08288539444,-36598.947536819884,-24465.88420461228,-33505.77902862776
14427.514604033782,4984.729586211394,-25421.46598356557,-32889.85435841732,-37483.62958236093,-36603.373182222036,-24601.1569620558,-33578.1763289185
14299.997901916255,5020.492377339885,-25368.045314317384,-32818.97697674954,-37639.98003482581,-36546.108012927536,-24669.441541366763,-33587.89933775656
14304.624713018504,5022.302868640765,-25343.011360527442,-32816.585340092824,-37483.13784398292,-36533.5239807992,-24545.769339295548,-33524.59919745913
14434.287182603739,4989.6469699915615,-25380.562291212358,-32882.47828274706,-37288.32003931046,-36581.60258312256,-24446.59464914735,-33498.51471167978
14441.149168151518,4969.5751034706955,-25428.327969113347,-32907.825160959386,-37432.39938406937,-36616.33719400611,-24565.77415058305,-33577.43872135147
14319.555678314648,5007.416606833531,-25380.36112551226,-32836.32193044686,-37634.32504347862,-36562.35773114654,-24671.87788151239,-33610.69811710097
14291.012500645222,5024.5156913418405,-25343.14547099417,-32815.91478775916,-37520.93464385685,-36534.507457555235,-24572.926708808747,-33549.90137218253
14414.751757949802,4997.425377062008,-25374.952003354076,-32880.064294345895,-37312.48227506665,-36580.775568577716,-24461.212690021122,-33515.36792699908
14459.455246860416,4979.6110367311285,-25416.07921315184,-32906.84168420335,-37395.139026062374,-36615.376068994534,-24542.684798560716,-33574.10831142763
14345.103722227064,5013.429226092008,-25388.206587816072,-32843.78741309493,-37609.8275315556,-36568.03507423819,-24658.35507611693,-33615.25787296985
14291.951273912344,5039.379601404619,-25328.125098720207,-32797.76517126145,-37546.75090870272,-36518.41420154741,-24581.353316468398,-33555.0199216628
14403.933513633432,5014.032723192301,-25345.96179079554,-32850.87291608726,-37310.02358317657,-36547.493821083764,-24441.096120011345,-33498.894691335525
14474.453267389927,4987.054167634746,-25405.350375813294,-32905.32176558039,-37346.6133888499,-36598.20992925286,-24504.865646942337,-33553.03061640628
14379.480705199327,5013.56333655874,-25384.27268079194,-32853.95745682209,-37574.042388682654,-36560.994274734774,-24642.284171853564,-33608.35118393316
14289.224361088796,5038.28436592631,-25335.59058136828,-32803.241348653006,-37574.332961360575,-36508.80295143163,-24602.54277021203,-33567.84982298015
14376.664385397959,5018.033685449802,-25350.58860189779,-32843.22861948355,-37339.572589346484,-36532.07111740961,-24457.770521375005,-33504.572034427176
14473.983880756365,4984.908400167036,-25400.097715866294,-32902.79601845694,-37307.29667035302,-36586.85524306956,-24478.64705069626,-33537.1161743541
14402.413595010472,5005.851984721659,-25395.806180930875,-32866.22856452806,-37540.17949583286,-36566.80572829315,-24632.471756037685,-33605.3336984317
14288.39734654395,5028.963688488447,-25355.237764744496,-32812.60672957978,-37608.95581352184,-36516.9166346689,-24640.138404385856,-33585.66416331103
14350.334030429607,5016.424359849019,-25339.85976455924,-32839.76409909297,-37394.35671500644,-36526.01379466221,-24493.309795058944,-33519.8606276346
14470.228787687873,4989.378749058098,-25391.112314595262,-32901.030230644974,-37290.55521375599,-36579.76974007723,-24461.056227809935,-33527.75079342732
14417.94805740691,4993.469118293419,-25412.502934038992,-32888.93793689465,-37500.19222500232,-36580.01560926624,-24606.49902898062,-33599.54459661777
14294.454669291339,5025.812092520248,-25366.368933483238,-32823.73789831852,-37621.96452879483,-36528.4724865523,-24652.320105114,-33598.024677994814
14313.45365207835,5009.696484767972,-25364.625497415724,-32846.715491618575,-37454.66172154686,-36537.65905352343,-24531.777147266526,-33541.65357847853
14453.397924113027,4984.930751911492,-25393.012212873964,-32903.91360567971,-37292.9021469238,-36586.45291166937,-24461.3244487434,-33527.706089938416
14438.735179750345,4982.6061704881395,-25406.579721758335,-32902.930128923676,-37451.51012557866,-36594.5889466511,-24586.650679904305,-33591.49796861386
14307.195163630864,5011.395217346575,-25376.986012099507,-32836.76896533596,-37637.521342935725,-36541.5259053142,-24680.237433938677,-33615.32492820322
14313.252486378251,5022.548737829774,-25340.463261659537,-32817.81468603786,-37477.28168693563,-36517.07309688009,-24551.156109709278,-33542.01120638981
14439.293973361728,4984.617827489117,-25387.468980249047,-32891.396628784736,-37285.43666427573,-36575.612315608545,-24450.372093960297,-33517.20077004442
14455.566043325192,4972.503181994341,-25423.209419633084,-32909.61330051581,-37418.67541297381,-36598.36639146404,-24567.159958739277,-33583.78661677678
14329.569259830627,5004.712045754439,-25379.444703989593,-32842.26749447197,-37622.54567415067,-36548.209076906336,-24675.722381558702,-33615.61550088114
14290.006672144733,5014.99384820388,-25349.627476886213,-32821.905055273186,-37525.02501309216,-36524.024489405696,-24582.694421135715,-33560.16082288752
14411.75662419279,4984.3049030667435,-25387.93836688261,-32883.17118682518,-37311.58820528844,-36567.498632371266,-24458.485777197573,-33519.83827589015
14473.022755744787,4971.340891282665,-25417.88970445272,-32913.189579628655,-37376.832947353476,-36599.39457170899,-24532.626513555828,-33569.66031428103
14353.46327465335,4996.46425205043,-25378.997669100485,-32850.202363753604,-37600.752723306745,-36561.30719915714,-24665.30646864253,-33619.39294569408
14280.663642962414,5013.988019703391,-25346.96761929603,-32812.0926394573,-37560.81015596511,-36521.208169604324,-24603.883874879346,-33573.50481432734
14390.254246026785,4991.166888614523,-25373.40973298666,-32866.429730228156,-37332.643548565335,-36554.13228918699,-24464.341934244865,-33517.46899097788
14477.269587191295,4974.447783761952,-25402.17642810064,-32904.584158013364,-37333.80583927701,-36594.36542920655,-24502.742231219083,-33554.192907117955
14365.533216659214,4985.646007734062,-25409.619559004255,-32875.102207076816,-37590.11329294602,-36576.41697840893,-24664.770026775604,-33625.53967541929
14280.931863895878,5022.6381448075945,-25350.320380964327,-32813.9478342471,-37593.22018542531,-36520.090582381556,-24630.996540903634,-33585.306535399744
14373.311623729662,5011.462272579941,-25347.63817162969,-32846.11199451828,-37349.9661505182,-36534.41805057741,-24471.36038200383,-33511.92575835297
14475.079116234676,4974.246618061855,-25402.13172461173,-32914.37422208479,-37305.15090288531,-36590.967964049334,-24481.016335608525,-33537.429098776476
14399.977254864843,4987.143574612567,-25409.910131682176,-32884.98167812606,-37537.832562665055,-36577.93689703189,-24634.84104094995,-33609.40171592256
14288.06207037712,5019.620659306128,-25362.88206134821,-32819.871046527755,-37608.240557699275,-36519.55414051463,-24640.764253230605,-33588.36872439012
14346.333068172107,5010.009409190347,-25342.78784308289,-32838.534753147935,-37398.1788633083,-36524.6726899949,-24493.957995648147,-33518.87715087857
14460.751648038824,4967.451687747442,-25413.799335217398,-32917.123486652796,-37310.8058942325,-36591.30324021617,-24474.422570994207,-33539.19488658844
14423.04425514272,4984.394310044564,-25426.31631211237,-32897.945689910135,-37501.86860583647,-36587.10111225857,-24616.266741307587,-33609.84875081167
14293.672358235402,5020.313563384243,-25369.83345387381,-32826.017776252964,-37632.89453183347,-36532.831076721086,-24666.379352376385,-33609.066439755734
14308.044529920166,5004.46617656543,-25366.950078839076,-32843.67565437265,-37455.17581166933,-36540.31891111361,-24536.98510372461,-33548.09088088165
14447.430008343461,4976.504144251841,-25397.862541420764,-32908.40630631522,-37304.614461018384,-36593.918394317436,-24469.393428491763,-33538.90431391053
14443.38434259705,4982.114432110123,-25410.290111337916,-32903.265405090504,-37458.640332059906,-36601.38387696551,-24591.322194495464,-33599.18696870649
14323.690751038881,5024.180415175011,-25359.30578223536,-32829.45994489908,-37626.63604338599,-36543.98459720428,-24671.766122790115,-33613.87206481362
14315.599419546059,5030.103627455667,-25334.87532554571,-32818.194665693605,-37487.47408240725,-36521.9681289158,-24551.13375796482,-33542.63705523456
14431.493214546826,4981.577990243196,-25391.179369828627,-32896.17990209817,-37301.44051330573,-36582.69781860087,-24453.300172483945,-33517.04430783323
14458.471770104381,4971.653815705039,-25417.196800374604,-32913.256634862024,-37423.682203731805,-36603.373182222036,-24558.018095257055,-33577.17050041801
14334.799568033168,5006.924868455514,-25377.656564433168,-32848.7047968751,-37615.88485430299,-36553.148812430954,-24670.492073356163,-33608.39588742208
14287.704442465836,5016.916098227036,-25351.952058309565,-32830.1975524661,-37539.12896384346,-36528.09250689656,-24591.63511891784,-33558.35033158664
14398.56909496416,4983.053205377246,-25389.704154694577,-32894.54822475293,-37322.093525182434,-36573.9806382633,-24468.18643429118,-33517.33488051115
14461.891587006045,4969.306882537232,-25416.347434085303,-32923.87371347829,-37372.65317114034,-36606.61418516805,-24527.820888497936,-33560.85372696564
14351.36221067455,4999.839365463182,-25390.8440936618,-32865.110977305296,-37603.479636130294,-36567.74450156027,-24664.01006746412,-33609.24525371138
14283.994052886255,5028.427246621519,-25339.21156397004,-32811.31032840137,-37559.89373444244,-36520.35880331502,-24596.664261420283,-33557.411558319516
14383.32520524564,5004.890859710081,-25371.621593430234,-32865.46860521658,-37328.664938052294,-36558.87085901152,-24456.965858574615,-33507.52246469527
14471.189912699452,4982.829687932693,-25404.12102986825,-32911.9155301947,-37339.30436841302,-36607.19533052389,-24501.37877480731,-33549.49904078234
14380.419478466449,5000.286400352287,-25397.46021002057,-32869.916602363184,-37577.01517069521,-36582.98839127879,-24657.550413316538,-33616.7330881039
14288.196180843852,5033.881072268614,-25350.16391875314,-32809.20926442257,-37599.59043259507,-36528.71835574131,-24633.656398493815,-33585.79827377776
14369.645937638992,5018.570127316729,-25347.414654185137,-32841.10520376029,-37364.2712669696,-36542.01764369221,-24474.13199831629,-33514.02682233177
14469.49118012085,4976.235923318377,-25407.540846769913,-32913.256634862024,-37314.85155997891,-36601.24976649878,-24479.742286174573,-33539.39605228854
14402.726519432847,4988.171754857512,-25418.80612597539,-32890.055524117415,-37544.47103076828,-36589.783321593204,-24639.266686352097,-33613.84971306917
14282.496486007749,5020.961763973447,-25358.501119434968,-32822.77677330694,-37618.45530491535,-36532.62991102099,-24652.431863836275,-33594.91778551552
14335.537175600193,5012.065769680235,-25347.481709418502,-32840.904038060195,-37411.50050300366,-36538.73193725728,-24510.65474875626,-33528.55545622772
14469.20060744293,4984.729586211394,-25397.3931547872,-32904.248881846535,-37300.41233306078,-36589.179824492916,-24471.941527359668,-33529.89656089504
14434.063665159187,4984.036682133279,-25408.88195143723,-32895.4646462756,-37499.00758254619,-36590.45387392687,-24621.027662876568,-33601.735067574395
14301.473117050306,5008.578897545207,-25363.30674449286,-32830.68929084412,-37630.77111611022,-36537.21201863432,-24671.095570456455,-33604.260814697845
14319.175698658908,5005.539060299285,-25355.05895078885,-32830.37636642175,-37457.34393088149,-36525.9243876844,-24532.24653390009,-33531.93056964047
14445.016019942286,4968.658681948028,-25390.01707911695,-32898.571538754884,-37287.44832127671,-36579.4344639104,-24451.51203292752,-33511.05404031921
14440.344505351128,4963.048394089746,-25420.50485855399,-32911.40144007224,-37450.861924989455,-36603.82021711114,-24580.1016187789,-33583.0266574653
14315.711178268335,5002.231002119899,-25370.571061440834,-32838.601808381296,-37631.21815099933,-36544.45398383784,-24665.239413409166,-33599.11991347312
14303.104794395542,5015.932621471003,-25343.905430305655,-32824.25198844099,-37497.487663923224,-36520.53761727067,-24550.418502142253,-33531.662348707
14423.558345265192,4982.2261908324,-25392.40871577367,-32891.41898052919,-37299.83118770495,-36574.91941153043,-24448.539250914964,-33503.61090941559
14458.069438704186,4971.720870938405,-25414.93927418462,-32915.491809307554,-37410.65113671436,-36607.73177239082,-24546.305781162475,-33568.78859624727
14338.711123312847,5003.259182364844,-25382.663355191155,-32854.94093357813,-37621.31632820563,-36563.363559647034,-24658.958573217224,-33607.948852532965
14290.25254133374,5022.6381448075945,-25344.128947750207,-32820.720412817056,-37547.73438545876,-36530.61825402001,-24581.44272344622,-33556.69630249695
14406.392205523516,4996.821879961715,-25367.64298291719,-32880.60073621282,-37323.501685083116,-36571.18667020639,-24450.28268698248,-33510.227025774366
14476.084944735163,4983.075557121701,-25401.483524022526,-32910.46266680511,-37359.4656419117,-36601.9873740658,-24507.547856276975,-33551.93538092797
14370.785876606213,5013.697447025472,-25378.416523744647,-32850.96232306508,-37586.268792899704,-36563.31885615812,-24646.374541088884,-33605.06547749823
14295.549904769648,5042.039458994801,-25331.231991199493,-32800.60384280728,-37566.4651473123,-36517.006041646724,-24595.97135734217,-33560.58550603217
14394.210504795374,5017.273726138321,-25353.44962518807,-32853.53277367744,-37340.86899052489,-36546.867972239015,-24456.049437051945,-33501.37573497006
14481.538770382258,4986.5400775122735,-25398.26487282096,-32902.12546612328,-37332.77765903207,-36597.09234203009,-24485.41962926622,-33537.272636565285
14396.624493196547,5010.478795823908,-25389.324175038837,-32855.522078933966,-37563.067682155095,-36572.304257429154,-24629.856601936415,-33598.382305906096
14293.985282657777,5036.563281603251,-25352.667314132133,-32803.218996908545,-37613.64967985746,-36525.85733245103,-24627.01793039059,-33575.248250394856
14366.561396904159,5019.888880239592,-25352.041465287384,-32834.93612229063,-37388.83583412598,-36543.157582659434,-24481.217501308623,-33510.65170891902
14478.074249991687,4991.032778147791,-25394.398021030192,-32895.0623148754,-37315.81268499049,-36597.405266452464,-24470.958050603636,-33528.756621927816
14415.668179472468,5002.231002119899,-25403.36107055677,-32870.92243086367,-37535.08329809705,-36586.13998724699,-24621.49704951013,-33598.31525067273
14304.02121591821,5040.005450249369,-25342.96665703853,-32799.15097941768,-37626.30076721916,-36523.77862021668,-24641.144232886345,-33580.635020808586
14345.059018738153,5029.366019888642,-25344.687741361588,-32822.91088377367,-37433.15934338085,-36532.42874532089,-24507.95018767717,-33519.39124100104
14466.29488066374,4994.944333427469,-25383.40096275818,-32890.52491075097,-37312.12464715537,-36585.871766313525,-24465.615983678817,-33519.68181367896
14436.723522749367,4996.710121239438,-25401.841151933808,-32886.479245004564,-37490.290402208615,-36592.2867169722,-24598.340642254432,-33588.726352301404
14306.234038619286,5029.768351288838,-25360.15514852466,-32819.98280525003,-37643.466906960835,-36544.18576290438,-24668.033381466077,-33602.427971652505
14323.757806272246,5036.339764158698,-25332.930723778096,-32814.30546215838,-37470.866736276956,-36526.75140222924,-24537.163917680256,-33531.327072540174
14456.504816592314,5003.594458531673,-25378.528282466923,-32879.17022456768,-37299.0041731601,-36577.64632435398,-24454.194242262154,-33510.45054321892
14455.074304947175,4991.9939031593685,-25409.843076448808,-32887.060390360406,-37443.374090596924,-36592.64434488348,-24568.456359917684,-33575.15884341703
14324.115434183532,5021.453502351464,-25373.722657409035,-32824.22963669654,-37640.91880809293,-36544.006948948736,-24672.749599546147,-33608.21707346643
14304.937637440878,5033.255223423866,-25330.58379061029,-32802.14611317469,-37509.49055069573,-36517.63189049147,-24560.365028424865,-33540.35717730012
14422.887792931533,4988.328217068698,-25387.424276760135,-32881.07012284638,-37317.757286758104,-36575.56761211963,-24460.78800687647,-33515.52438921027
14465.177293440975,4978.471097763908,-25414.06755615086,-32904.584158013364,-37410.114694847434,-36601.56269092115,-24553.413635899262,-33571.58256430418
14350.803417063167,5018.368961616631,-25373.297974264384,-32836.34428219131,-37619.707002604846,-36549.93016122939,-24667.608698321426,-33607.72533508841
14294.432317546883,5035.199825191477,-25333.981255767496,-32803.55427307538,-37560.407824564914,-36512.93802415586,-24597.37951724285,-33555.82458446319
14416.964580650876,5017.653705794061,-25360.892756091685,-32852.97398006606,-37323.59109206094,-36545.34805361606,-24461.615021421316,-33503.05211580421
14486.657319862525,4995.838403205682,-25397.773134442945,-32897.14102710975,-37363.623066380394,-36588.66573437044,-24516.332091847908,-33547.2191628479
14374.049231296687,5014.345647614676,-25392.095791351294,-32852.236372499035,-37606.92180477641,-36558.64734156696,-24662.892480241357,-33607.323003688216
14287.078593621087,5031.936470501002,-25345.514755906435,-32809.47748535603,-37596.43883662687,-36515.955509657324,-24621.899380910323,-33569.45914858093
14380.575940677636,5006.477833566408,-25355.662447889146,-32849.21888699757,-37359.53269714507,-36541.123573914,-24472.947355860157,-33507.075429806166
14480.443534903949,4980.572161742707,-25406.579721758335,-32905.45587604712,-37334.8116677775,-36591.258536727255,-24493.868588670324,-33536.713842953905
14388.779030892734,4988.931714168992,-25410.98301541603,-32881.13717807975,-37579.54091781866,-36584.77653083522,-24657.46100633872,-33613.38032643561
14279.769573184201,5016.312601126743,-25374.706134165066,-32825.324872174846,-37644.249218016776,-36536.65322502294,-24661.68548604077,-33596.30359367175
14366.673155626435,5018.838348250192,-25351.057988531353,-32838.668863614665,-37395.74252316267,-36536.385004089476,-24490.3817165353,-33513.1104008091
14480.48823839286,4987.300036823754,-25396.02969837543,-32901.097285878335,-37308.5036645536,-36591.48205417181,-24467.69469591316,-33522.92281662498
14424.653580743503,4995.816051461226,-25404.746878713,-32879.41609375669,-37528.78010616066,-36587.65990586995,-24620.379462287365,-33596.79533204977
14305.518782796715,5034.104589713167,-25347.481709418502,-32805.029488209424,-37626.85956083054,-36527.04197490716,-24651.82836673598,-33585.7759220333
14345.483701882804,5027.287307654298,-25338.093976747274,-32817.65822382668,-37424.7327357212,-36525.678518495384,-24503.32337657492,-33509.645880418524
14466.808970786211,4984.528420511297,-25391.984032629018,-32885.763989182,-37292.85744343489,-36580.775568577716,-24449.813300348917,-33507.433057717455
14443.339639108139,4986.495374023363,-25415.65453000719,-32878.56672746739,-37481.17089047085,-36584.79888257967,-24587.075363048956,-33575.583526561684
14311.106718910542,5019.9335837285025,-25373.901471364676,-32811.48914235701,-37639.488296447795,-36534.641568021965,-24664.948840731246,-33588.68164881249
14323.31077138314,5030.260089666855,-25333.601276111756,-32803.35310737528,-37470.48675662121,-36516.98368990227,-24537.968580480647,-33517.53604621125
14456.258947403307,4999.32527534071,-25373.96852659804,-32863.903983104705,-37285.391960786816,-36561.77658579071,-24437.095157753847,-33488.07644701916
14462.517435850792,4987.657664735039,-25410.424221804646,-32881.85243390232,-37427.97373866722,-36588.263402970246,-24551.82666204294,-33553.45529955093
14335.537175600193,5025.6332785646055,-25367.799445128378,-32812.96435749106,-37624.49027591828,-36535.535637800174,-24652.208346391722,-33582.78078827629
14304.915285696423,5034.976307746924,-25346.744101851476,-32796.91580497215,-37515.681983909846,-36512.267471822204,-24556.207603956176,-33524.062755592204
14431.537918035738,5001.0910631526785,-25377.589509199803,-32862.56287843739,-37311.02941167705,-36559.56376308963,-24445.29824796894,-33486.22125222936
14475.77202031279,4984.059033877735,-25401.7964484449,-32888.379143283266,-37391.18276729379,-36590.967964049334,-24530.547801321485,-33538.79255518825
14348.79176006219,5004.533231798796,-25385.904358137173,-32836.567799635865,-37620.3775549385,-36558.71439680033,-24664.300640142043,-33593.80019829276
14301.517820539215,5035.244528680388,-25331.477860388502,-32783.68357225461,-37554.50696402871,-36503.17031182889,-24581.24155774612,-33530.34359578414
14413.14243234902,5011.216403390933,-25348.196965241073,-32839.00413978149,-37318.49489432513,-36536.9214459564,-24439.93382929967,-33474.06190324568
14481.494066893349,4985.467193778419,-25397.929596654132,-32889.34026829484,-37351.41901390779,-36585.737655846795,-24499.18830385069,-33523.638072447546
14375.144466774997,5003.527403298307,-25385.904358137173,-32838.02066302546,-37596.572947093606,-36557.55210608865,-24654.17529990379,-33587.31819240072
14287.950311654844,5029.723647799927,-25335.612933112734,-32786.85751996726,-37596.19296743786,-36506.85834966402,-24620.91590415429,-33549.02965414878
14374.853894097078,5007.193089388978,-25356.86944208973,-32835.20434322409,-37372.16143276232,-36538.75428900174,-24476.434227995185,-33493.373810455065
14473.849770289633,4977.755841941338,-25413.866390450763,-32897.386896298754,-37338.656167823814,-36596.779417607715,-24494.51678925953,-33525.62737770407
14392.71293791687,4991.971551414914,-25409.060765392875,-32868.68725641814,-37569.52733630268,-36582.63076336751,-24646.195727133243,-33596.57181460522
14286.63155873198,5022.7499035298715,-25351.326209464816,-32803.33075563082,-37631.15109576596,-36525.343242328556,-24650.129634157376,-33575.15884341703
14345.416646649439,5003.572106787218,-25360.19985201357,-32832.20920946708,-37415.05443037205,-36538.821344235104,-24504.306853330952,-33507.52246469527
14469.312366165206,4982.092080365668,-25400.03066063293,-32888.60266072782,-37316.03620243504,-36586.1846907359,-24476.635393695284,-33511.2105025304
14425.435891799438,4995.301961338754,-25399.74008795501,-32866.51913720598,-37525.38264100345,-36580.350885433065,-24620.64768322083,-33578.13162542959
14292.934750668377,5021.5205575848295,-25358.456415946057,-32800.82736025183,-37651.80410764267,-36528.58424527458,-24665.59704132045,-33579.45037835245
14323.511937083238,5022.4593308519525,-25357.249421745473,-32814.283110413926,-37461.568410583546,-36523.48804753877,-24528.357330364863,-33508.81886587368
14460.416371871994,4999.70525499645,-25383.110390080263,-32871.61533494179,-37307.72135349767,-36572.97480976282,-24459.759826631525,-33495.07254303367
14438.176386138963,4993.111490382134,-25410.200704360093,-32875.32572452137,-37480.12035848145,-36584.128330246014,-24584.68372639224,-33561.747796743846
14306.21168687483,5023.37575237462,-25377.45539873307,-32815.42304938115,-37661.147136824984,-36536.13913490047,-24671.050866967544,-33581.797311520255
14310.994960188265,5030.707124555961,-25339.993875025975,-32806.03531670992,-37493.95608829929,-36514.86027417902,-24541.120176448843,-33510.27172926327
14441.596203040624,4999.772310229816,-25389.480637250024,-32870.4083407412,-37307.22961511965,-36564.45879512534,-24447.689884625663,-33487.562356896684
14466.250177174828,4997.827708462204,-25395.962643142062,-32877.672657689174,-37432.488791047195,-36582.34019068959,-24553.972429510646,-33545.185154102466
14330.955067986855,5023.196938418977,-25363.999648570974,-32816.76415404846,-37635.62144465702,-36538.15079190145,-24664.814730264516,-33579.94211673047
14296.108698381031,5036.630336836617,-25329.980293509998,-32792.55721480337,-37529.40595500541,-36508.870006665,-24564.164824982265,-33518.765392156296
14413.768281193768,4998.386502073587,-25370.347543996282,-32858.874840602264,-37315.81268499049,-36557.41799562192,-24441.721968856094,-33479.940412037424
14460.23755791635,4977.979359385891,-25414.02285266195,-32894.97290789758,-37401.64338369887,-36596.57825190762,-24530.48074608812,-33540.53599125576
14352.993888019788,5016.402008104564,-25376.06959057684,-32826.26364544197,-37618.231787470795,-36543.738728015276,-24654.15294815933,-33575.516471328316
14294.119393124509,5036.540929858796,-25325.174668452106,-32786.18696763361,-37562.307722843616,-36500.868082149995,-24587.16477002678,-33521.44760149093
14398.479687986337,5006.522537055318,-25357.517642678937,-32844.52502066195,-37339.32672015747,-36539.670710524406,-24454.618925406805,-33474.285420690234
14486.925540795988,4994.139670627078,-25398.331928054326,-32882.07595134687,-37347.6639208393,-36576.34992317556,-24489.93468164619,-33508.86356936259
14389.784859393223,5015.440883092986,-25380.338773767802,-32834.71260484608,-37579.67502828539,-36549.3266641291,-24633.83521244946,-33564.36295084512
14286.54215175416,5030.081275711212,-25339.837412814788,-32788.265679867945,-37603.65845008593,-36508.55708224262,-24614.29978779552,-33535.30568305322
14368.684812627413,5005.069673665724,-25359.082264790806,-32832.54448563391,-37375.849470597444,-36536.69792851185,-24472.343858759865,-33479.06869400367
14471.614595844103,4975.453612262441,-25403.517532767957,-32889.11675085029,-37339.17025794629,-36586.63172562501,-24485.62079496632,-33505.86843560558
14396.333920518628,4988.641141491073,-25399.337756554814,-32854.71741613357,-37555.33397857356,-36567.766853304725,-24631.01889264809,-33569.90618347003
14281.06597436261,5022.258165151855,-25359.484596191003,-32789.673839768635,-37639.890627847984,-36515.79904744614,-24643.222945120688,-33556.49513679685
14342.801492548168,5015.195013903977,-25346.02884602891,-32813.41139238017,-37411.724020448215,-36524.60563476153,-24489.95703339065,-33483.42728417245
14465.624328330081,4981.220362331911,-25391.984032629018,-32879.773721667974,-37304.99444067412,-36575.94759177537,-24457.144672530256,-33489.596365642115
14424.228897598852,4989.065824635723,-25394.286262307916,-32860.23829701404,-37506.920100083364,-36572.527774873706,-24601.380479500353,-33558.99853217584
14304.132974640486,5029.477778610919,-25338.20573546955,-32786.54459554489,-37628.73710736479,-36514.94968115684,-24647.670942267294,-33555.48930829636
14327.02116096272,5027.197900676478,-25335.456470901547,-32799.55331081788,-37449.16319241085,-36515.86610267951,-24515.303911602965,-33491.8538918321
14454.515511335792,4992.79856595976,-25385.032640103418,-32870.36363725229,-37299.74178072713,-36571.276077184215,-24445.901745069237,-33482.957897538894
14452.257985145807,5001.493394552875,-25393.593358229802,-32859.4559859581,-37468.273933920136,-36574.91941153043,-24574.267813476064,-33546.90623842552
14330.105701697554,5037.502054870374,-25338.20573546955,-32782.811854220854,-37629.92174982092,-36516.08962012406,-24648.58736378996,-33557.63507576407
14324.07073069462,5044.989889262902,-25313.81998226881,-32773.11119712725,-37485.46242540627,-36494.721352424785,-24528.357330364863,-33488.72464760836
14441.082112918153,5001.22517361941,-25367.866500361743,-32851.185840509635,-37302.580452272945,-36555.0263589652,-24437.855117065326,-33470.016237499265
14457.287127648251,4980.974493142902,-25408.32315782585,-32881.22658505757,-37430.231264857204,-36588.889251814995,-24550.686723075716,-33542.01120638981
14327.155271429452,5007.5507173002625,-25378.93061386712,-32819.60282559429,-37645.009177328255,-36542.50938207023,-24668.256898910633,-33581.48438709789
14290.051375633642,5026.057961709257,-25339.92681979261,-32786.74576124499,-37539.95597838831,-36504.98080312977,-24570.646830874306,-33515.25616827681
14410.884906159034,4994.162022371534,-25367.486520706003,-32849.1071282753,-37320.64066179284,-36549.170201917914,-24446.59464914735,-33472.743150322814
14469.602938843125,4980.303940809244,-25403.383422301224,-32879.99723911253,-37378.97871482119,-36579.99325752178,-24517.762603493047,-33518.13954331155
14349.12703622902,5002.901554453559,-25390.151189583685,-32828.63293035423,-37618.54471189317,-36543.69402452636,-24659.763236017614,-33569.012113691824
14275.589796971059,5018.033685449802,-25346.38647394019,-32792.06547642535,-37582.29018238666,-36507.35008804203,-24604.733241168648,-33526.20852305991
14383.436963967915,4995.480775294397,-25361.608011914257,-32837.93125604764,-37348.178010961776,-36536.385004089476,-24459.759826631525,-33470.59738285511
14469.044145231743,4968.301054036743,-25415.252198606995,-32889.630840972764,-37358.12453724439,-36584.977696535316,-24503.926873675213,-33511.23285427485
14382.185266278419,4991.859792692637,-25390.620576217247,-32838.42299442566,-37583.54188007616,-36554.73578628728,-24646.68746551126,-33567.71571251342
14285.91630290941,5020.492377339885,-25347.325247207315,-32783.996496676984,-37614.27552870221,-36504.8690444075,-24627.2637995796,-33535.28333130876
14364.259167225262,5002.521574797818,-25354.6342676442,-32823.62613959624,-37386.95828759173,-36527.84663770755,-24478.825864651903,-33471.11147297758
14475.459095890415,4974.112507595123,-25401.5952827448,-32880.198404812625,-37324.93219672825,-36580.10501624406,-24473.3273355159,-33490.24456623132
14401.497173487804,4982.114432110123,-25398.287224565414,-32854.337436477836,-37550.841277938045,-36569.242068438776,-24625.185087345253,-33561.01018917682
14283.9717011418,5017.988981960891,-25353.65079088817,-32790.65731652467,-37638.437764458395,-36516.64841373544,-24645.815747477503,-33549.87902043808
14345.237832693796,5016.580822060207,-25335.54587787937,-32800.96147071856,-37417.84839842897,-36514.770867201194,-24491.342841546877,-33475.403007912995
14463.8138370292,4982.31559781022,-25388.49716049399,-32871.34711400832,-37304.94973718521,-36573.17597546292,-24452.294343983456,-33479.62748761505
14426.24055459983,4987.143574612567,-25401.058840877875,-32859.88066910275,-37510.228158262755,-36576.59579236458,-24602.76628765658,-33554.25996235132
14293.180619857387,5016.379656360109,-25365.676029405124,-32798.30161312838,-37657.41439550095,-36525.99144291776,-24669.12861694439,-33563.17830838899
14314.526535812205,5017.497243582874,-25365.385456727203,-32804.001307964485,-37485.976515528746,-36521.498742282245,-24540.114347948354,-33499.386429713544
14452.034467701253,4993.133842126589,-25372.605070186266,-32860.64062841423,-37309.66595526528,-36564.81642303663,-24451.46732943861,-33475.8500428021
14449.95575546691,4997.425377062008,-25390.26294830596,-32859.4559859581,-37455.53343958061,-36573.39949290747,-24567.33877269492,-33537.004415631825
14308.871544465012,5019.799473261771,-25364.714904393542,-32798.10044742828,-37646.685558162404,-36531.08764065357,-24661.283154640576,-33564.5194130563
14302.188372872875,5036.362115903154,-25325.800517296855,-32770.27252558142,-37505.534291927135,-36499.72814318277,-24544.875269517335,-33490.82571158716
14429.302743590206,5002.9686096869245,-25370.12402655173,-32836.232523469036,-37305.039144163035,-36549.66194029593,-24438.145689743244,-33457.74512979331
14453.934365979954,4980.639216976073,-25408.83724794832,-32867.39085523973,-37416.59670073947,-36583.90481280146,-24544.696455561694,-33524.621549203584
14326.64118130698,5005.874336466114,-25372.761532397453,-32810.25979641197,-37644.62919767251,-36544.833963493584,-24672.50373035714,-33570.73319801488
14284.239922075263,5022.7499035298715,-25329.01916849842,-32772.86532793824,-37551.15420236042,-36504.8690444075,-24580.1016187789,-33506.76250538379
14403.195906066407,4990.943371169969,-25363.6867241486,-32834.31027344588,-37322.83113274946,-36544.02930069319,-24445.36530320231,-33457.54396409321
14458.00238347082,4961.439068488964,-25415.02868116244,-32882.165358324695,-37386.757121891635,-36589.89508031548,-24520.288350616498,-33514.67502292097
14358.850045067078,4998.98999917388,-25376.091942321294,-32825.30252043039,-37619.707002604846,-36548.76787051772,-24660.16556741781,-33566.19579389045
14288.084422121576,5031.154159445066,-25322.20188643955,-32774.63111575021,-37597.98110699429,-36503.46088450681,-24606.946063869724,-33522.34167126914
14384.331033746128,5006.500185310863,-25330.673197588112,-32823.17910470714,-37349.362653417906,-36534.12747789949,-24457.83757660837,-33464.96474325237
14477.470752891393,4978.426394274998,-25389.950023883586,-32877.5608989669,-37344.22175219319,-36584.4859581573,-24485.59844322186,-33504.37086872708
14391.125964060542,5002.454519564452,-25379.400000500682,-32833.93029379014,-37573.215374137806,-36556.032187465695,-24628.20257284672,-33564.184136889475
14280.082497606576,5021.319391884732,-25329.15327896515,-32783.862386210254,-37620.1316857495,-36510.3675735435,-24625.83328793446,-33543.44171803495
14363.70037361388,5014.367999359131,-25323.118307962217,-32807.6446423107,-37382.130310789384,-36516.84957943554,-24464.20782377813,-33471.75967356678
14470.653470832523,4976.571199485207,-25380.96462261255,-32880.42192225718,-37312.661089022295,-36579.90385054396,-24452.853137594837,-33494.8043221002
14405.788708423222,4991.099833381157,-25382.618651702243,-32854.71741613357,-37535.15035333042,-36572.61718185153,-24600.3075957665,-33570.10734917013
14288.106773866031,5028.226080921421,-25330.87436328821,-32788.198624634584,-37625.51845616323,-36513.250948578236,-24615.842058162936,-33557.72448274189
14330.329219142106,5014.457406336953,-25331.63432259969,-32813.858427269275,-37421.9834711532,-36524.71739348381,-24472.813245393427,-33496.12307502307
14445.351296109116,4974.693652950961,-25391.46994250655,-32887.820349671885,-37305.53088254105,-36583.39072267899,-24434.703521097126,-33503.18622627094
14409.767318936269,4974.872466906603,-25418.716718997566,-32884.378181025764,-37504.79668436011,-36588.6880861149,-24579.498121678607,-33579.24921265235
14295.840477447568,5025.99090647589,-25342.631380871702,-32801.18498816311,-37633.65449114496,-36518.39184980295,-24627.844944935438,-33573.86244223863
14318.795719003168,5036.362115903154,-25314.065851457817,-32799.106275928774,-37454.639369802404,-36504.019678118195,-24491.834579924893,-33500.28049949175
14438.645772772525,4991.233943847888,-25372.381552741714,-32877.78441641145,-37286.53189975404,-36563.52002185822,-24406.897950994728,-33486.243603973824
14438.086979161142,4976.392385529564,-25405.350375813294,-32898.77270445498,-37449.43141334432,-36593.851339084074,-24536.471013602142,-33565.525241556796
14323.131957427498,5026.594403576184,-25351.527375164915,-32815.62421508124,-37630.07821203211,-36531.15469588694,-24630.437747292253,-33585.28418365528
14302.031910661688,5034.596328091184,-25317.39626138166,-32798.99451720649,-37499.61107964648,-36502.209186817316,-24523.19407739569,-33519.368889256584
14433.057836658698,5004.8461562211705,-25352.890831576686,-32865.60271568331,-37294.980859158146,-36550.019568207215,-24413.06703246439,-33489.19403424192
14461.15397943902,4984.84134493367,-25399.158942599173,-32895.308184064415,-37399.005877853146,-36580.32853368861,-24511.973501679124,-33552.248305350346
14340.208690191352,5015.7091040264495,-25365.005477071463,-32831.896285044706,-37612.7779618237,-36530.014756919714,-24632.33764557095,-33589.53101510179
14287.793849443657,5030.66242106705,-25341.424386671115,-32805.76709577645,-37542.593484234036,-36496.37538151448,-24547.401016640786,-33536.512677253806
14406.012225867777,5006.9025167110585,-25344.061892516842,-32858.22664001306,-37307.72135349767,-36530.931178442384,-24410.764802785496,-33484.79074058423
14470.139380710052,4978.404042530542,-25388.005422115973,-32903.01953590149,-37353.60948486441,-36574.45002489687,-24476.70244892865,-33534.79159293075
14356.011373521254,4998.2747433513105,-25374.907299865165,-32857.42197721267,-37599.34456340606,-36545.884495482984,-24627.040282135044,-33595.8789105271
14276.103887093532,5026.527348342818,-25329.332092920795,-32807.51053184397,-37576.277563128184,-36497.13534082596,-24579.16284551178,-33551.823622205695
14380.352423233084,5008.221269633922,-25337.646941858166,-32850.559991664886,-37333.78348753256,-36521.16346611542,-24427.573314615885,-33488.85875807509
14473.223921444884,4973.93369363948,-25385.25615754797,-32904.584158013364,-37318.49489432513,-36576.931068531405,-24450.88618408277,-33524.53214222576
14380.531237188727,4987.165926357023,-25382.439837746602,-32873.29171577594,-37562.35242633253,-36561.86599276853,-24608.980072615155,-33596.57181460522
14287.749145954747,5030.550662344774,-25322.44775562856,-32801.5426160744,-37602.4738076298,-36499.325811782575,-24598.027717832058,-33564.541764800764
14365.197940492386,5021.252336651366,-25323.20771494004,-32830.10814548828,-37373.07785428499,-36511.66397472191,-24446.92992531418,-33495.07254303367
14475.05676449022,4983.522592010808,-25378.908262122663,-32897.34219280985,-37297.28308883704,-36571.16431846194,-24435.26231470851,-33513.713897909394
14418.305685318195,4996.419548561519,-25380.49523597899,-32872.82232914237,-37516.777219388154,-36563.922353258415,-24586.449514204207,-33588.45813136794
14296.600436759049,5029.075447210723,-25333.556572622845,-32807.06349695486,-37626.79250559718,-36510.658146221416,-24625.58741874545,-33585.999439477855
14341.348629158572,5028.807226277259,-25318.513848604423,-32813.83607552482,-37414.719154205224,-36502.812683917604,-24477.820036151414,-33511.45637171941
14468.798276042733,4992.329179326199,-25372.381552741714,-32886.25572756001,-37286.04016137602,-36560.435481123386,-24426.63454134876,-33506.74015363934
14438.578717539158,4988.954065913447,-25392.140494840205,-32883.30529729191,-37471.17966069933,-36570.73963531729,-24566.712923850173,-33579.07039869671
14304.8258787186,5020.827653506715,-25347.21348848504,-32811.623252823745,-37625.78667709669,-36513.250948578236,-24633.656398493815,-33588.100503456655
14312.201954388853,5024.873319253125,-25345.179479739607,-32813.83607552482,-37464.89882050739,-36499.974012371786,-24510.073603400422,-33521.335842768654
14447.742932765834,5000.286400352287,-25363.753779381965,-32879.10316933432,-37284.43083577524,-36550.82423100761,-24414.408137131708,-33496.57010991217
14456.90714799251,4995.793699716771,-25383.110390080263,-32890.681372962164,-37418.54130250708,-36568.14683296047,-24525.22808614112,-33556.60689551913
14325.478890595305,5024.985077975402,-25349.24749723047,-32823.849657040795,-37613.87319730201,-36516.84957943554,-24629.476622280672,-33585.15007318855
14293.11356462402,5027.600232076673,-25330.695549332566,-32810.25979641197,-37502.78502735913,-36496.01775360319,-24526.77035650854,-33526.63320620456
14416.741063206324,4991.166888614523,-25372.336849252802,-32877.963230367095,-37299.60767026039,-36548.74551877326,-24421.046605234937,-33498.738229124334
14463.679726562468,4978.381690786086,-25398.82366643234,-32902.32663182338,-37383.627877667896,-36575.634667353,-24506.832600454403,-33553.075319895186
14339.225213435318,5004.622638776617,-25373.40973298666,-32841.17225899366,-37611.19098796738,-36532.69696625435,-24637.50089854013,-33595.096599471166
14278.137895838965,5019.173624417022,-25337.043444757874,-32810.37155513425,-37556.27275184068,-36502.07507635058,-24565.930612794236,-33547.68854948146
14398.010301352777,5002.745092242371,-25356.02007580043,-32859.12070979127,-37320.50655132611,-36534.70862325533,-24425.338140170355,-33494.46904593337
14476.397869157538,4987.925885668503,-25390.553520983878,-32896.29166082045,-37345.45109813823,-36571.81251905114,-24472.343858759865,-33532.9140463965
14363.834484080611,5003.1474236425665,-25379.31059352286,-32853.68923588863,-37585.665295799416,-36545.77273676071,-24620.848848920927,-33595.54363436027
14284.597549986549,5034.573976346729,-25321.866610272722,-32798.748648017485,-37575.00351369423,-36492.21795704579,-24576.324173965953,-33551.533049527774
14379.547760432693,5008.333028356198,-25330.270866187915,-32846.559029407385,-37329.782525275055,-36516.55900675762,-24419.0125964895,-33486.08714176263
14476.688441835457,4976.012405873824,-25386.373744770735,-32900.18086435567,-37308.23544362014,-36567.766853304725,-24440.17969848868,-33518.65363343401
14388.868437870555,4985.869525178615,-25392.27460530694,-32871.30241051941,-37547.30970231411,-36554.780489776196,-24599.50293296611,-33591.27445116931
14281.244788318252,5015.7091040264495,-25339.546840136867,-32811.37738363473,-37606.38536290948,-36500.77867517217,-24606.29786328052,-33569.05681718073
14349.998754262777,5008.333028356198,-25340.48561340399,-32835.181991479636,-37380.811557866524,-36508.0206403757,-24456.071788796402,-33496.7042203789
14471.145209210541,4980.46040302043,-25372.895642864187,-32892.93889915215,-37289.5493852555,-36556.50157409925,-24429.78613731696,-33503.096819293125
14412.203659081897,4977.5546762412405,-25394.152151841183,-32880.53368097945,-37505.86956809396,-36557.7309200443,-24584.169636269766,-33575.60587830614
14276.752087682735,5000.264048607833,-25369.721695151533,-32822.46384888457,-37631.15109576596,-36509.674669465385,-24635.332779327964,-33578.13162542959
14314.59359104557,5001.426339319509,-25340.463261659537,-32828.76704082097,-37436.86973296043,-36511.26164332171,-24495.835542182394,-33509.71293565189
14450.313383378194,4975.69948145145,-25374.79554114289,-32891.41898052919,-37286.55425149849,-36560.65899856794,-24429.3167506834,-33499.587595413635
14432.230822113852,4975.185391328978,-25397.482561765024,-32890.122579350784,-37470.33029441003,-36572.103091729055,-24564.589508126915,-33569.79442474776
14305.496431052261,5015.7091040264495,-25351.236802486994,-32817.702927315586,-37639.68946214789,-36516.44724803534,-24648.54266030105,-33585.79827377776
14311.084367166088,5026.974383231925,-25321.33016840579,-32806.795276021396,-37472.096082222,-36497.40356175942,-24515.974463936625,-33512.99864208682
14441.23857512934,4990.451632791953,-25370.392247485193,-32878.76789316748,-37287.60478348789,-36556.18864967688,-24422.231247691067,-33493.9549558109
14458.427066615472,4977.979359385891,-25392.945157640595,-32893.92237590819,-37426.677337488814,-36580.01560926624,-24535.66635080175,-33559.579677531685
14326.149442928963,5008.176566145011,-25356.9364973231,-32830.06344199937,-37630.63700564349,-36532.85342846554,-24646.888631211357,-33591.877948269605
14297.0251199037,5020.715894784438,-25323.945322507065,-32802.63785155271,-37521.42638223486,-36507.12657059748,-24552.363103909865,-33533.18226732997
14424.340656321128,4993.111490382134,-25360.87040434723,-32864.08279706035,-37301.64167900583,-36546.867972239015,-24429.719082083593,-33490.49043542033
14474.453267389927,4982.561466999229,-25401.617634489256,-32893.69885846363,-37381.727979389194,-36579.657981354954,-24511.012376667546,-33543.128793612574
14353.239757208796,5010.031760934801,-25361.608011914257,-32835.74078509102,-37602.31734541862,-36539.871876224504,-24626.570895501485,-33583.98778247688
14286.720965709803,5025.141540186589,-25331.8801917887,-32804.068363197846,-37561.23483910976,-36503.729105440274,-24568.85869131788,-33542.525296512285
14396.222161796351,4996.46425205043,-25355.751854866965,-32862.853451115305,-37334.051708466024,-36542.93406521488,-24436.134032742266,-33494.67021163347
14476.420220901993,4971.050318604746,-25395.6944222086,-32905.94761442514,-37349.20619120672,-36583.14485348998,-24480.166969319223,-33531.327072540174
14382.431135467426,5000.286400352287,-25370.01226782945,-32845.59790439581,-37575.69641777234,-36541.10122216955,-24619.68655820925,-33576.85757599564
14285.625730231492,5018.771293016826,-25337.40107266916,-32803.17429341964,-37597.01998198271,-36501.426875761375,-24595.21139803069,-33546.48155528087
14369.914158572456,4993.223249104411,-25354.723674622022,-32848.503631175,-37371.647342639844,-36533.61338777702,-24449.27685848199,-33489.55166215321
14470.206435943419,4967.183466813978,-25400.187122844116,-32903.37716381278,-37326.74268802914,-36583.34601919008,-24458.597535919853,-33516.999604344324
14409.744967191813,4998.520612540318,-25379.6905731786,-32859.366578980276,-37545.163934846394,-36554.44521360937,-24603.034508590044,-33576.05291319524
14305.45172756335,5035.736267058404,-25320.436098627582,-32791.30551711387,-37609.559310622135,-36496.75536117022,-24608.35422377041,-33553.03061640628
14360.168797989942,5014.189185403488,-25331.76843306642,-32822.06151748437,-37397.19538655227,-36511.775733444185,-24460.0727510539,-33487.092970263126
14470.161732454508,4974.291321550765,-25392.967509385053,-32896.26930907599,-37311.409391332796,-36575.455853397354,-24442.280762467475,-33503.96853732688
14422.530165020247,4983.567295499718,-25389.704154694577,-32878.387913511746,-37511.59161467452,-36571.56664986213,-24586.740086882128,-33571.806081748735
14288.218532588307,5006.522537055318,-25359.21637525754,-32822.62031109575,-37643.37749998301,-36523.68921323886,-24640.652494508326,-33576.32113412871
14310.21264913233,4997.067749150723,-25353.62843914371,-32837.52892464744,-37459.13207043792,-36524.784448717175,-24505.849123698372,-33510.76346764129
14442.624383285569,4968.591626714662,-25402.243483334005,-32902.25957659001,-37306.13437964134,-36575.92524003091,-24438.30215195443,-33501.08516229215
14433.99660992582,4970.938559882469,-25416.995634674506,-32901.70078297863,-37477.10287297999,-36586.497615158274,-24567.651697117293,-33572.364875360116
14309.54209679867,5005.740225999382,-25357.96467756804,-32829.70581408808,-37650.21713378634,-36531.44526856486,-24653.392988847852,-33591.676782569506
14303.574181029104,5006.589592288684,-25337.40107266916,-32822.732069818034,-37503.23206224824,-36516.20137884634,-24539.555554336974,-33528.2648835498
14432.834319214144,4972.883161650081,-25380.450532490082,-32893.765913696996,-37313.488103567135,-36567.67744632691,-24441.297285711444,-33500.2581477473
14451.542729323237,4966.356452269131,-25409.105468881782,-32909.79211447145,-37436.7356224937,-36592.53258616121,-24541.3436938934,-33563.80415723374
14330.038646464187,5007.640124278084,-25368.40294222867,-32838.93708454813,-37639.197723769874,-36541.61531229202,-24648.520308556595,-33595.588337849185
14293.001805901744,5020.715894784438,-25338.697473847566,-32814.32781390283,-37543.28638831215,-36514.68146022337,-24559.67212434675,-33538.814906932705
14418.171574851463,4988.618789746617,-25367.240651516993,-32877.24797454452,-37323.88166473886,-36558.64734156696,-24438.279800209977,-33495.8548540896
14473.112162722608,4970.446821504453,-25408.345509570303,-32912.89900695074,-37397.64242144137,-36596.220623996334,-24519.37192909383,-33555.243439107355
14363.186283491408,5008.288324867288,-25384.138570325205,-32851.56582016538,-37623.95383405135,-36553.640550808974,-24651.69425626925,-33602.74089607488
14295.795773958656,5034.305755413265,-25322.492459117468,-32804.78361902042,-37577.30574337313,-36504.69023045185,-24584.974299070156,-33547.93441867047
14404.604065967093,5014.412702848042,-25340.999703526464,-32851.43170969864,-37338.74557480164,-36532.22757962079,-24431.641332106752,-33484.32135395066
14485.696194850945,4988.104699624146,-25392.051087862386,-32900.9184719227,-37349.18383946226,-36579.27800169921,-24475.13782681678,-33523.74983116983
14381.09003080011,5001.716911997427,-25387.156055826672,-32861.5570499369,-37596.72940930479,-36559.27319041171,-24634.84104094995,-33591.69913431396
14285.536323253671,5028.002563476868,-25340.977351782007,-32809.20926442257,-37617.740049092776,-36510.591090988055,-24611.885799394346,-33555.64577050755
14372.104629529076,5009.696484767972,-25349.649828630667,-32845.70966311808,-37373.9719240632,-36526.68434699588,-24457.27878299699,-33484.79074058423
14466.026659730276,4964.389498757065,-25423.902323711198,-32917.05643141943,-37337.739746301144,-36589.87272857103,-24470.734533159084,-33519.30183402322
14395.149278062498,4978.560504741729,-25422.337701599325,-32886.30043104893,-37575.316438116606,-36580.03796101069,-24623.709872211206,-33592.16852094752
14290.45370703384,5022.436979107497,-25338.518659891924,-32806.370592876745,-37628.24536898677,-36509.87583516548,-24622.10054661042,-33559.37851183159
14340.946297758377,5003.75092074286,-25346.542936151378,-32837.551276391896,-37426.476171788716,-36524.31506208361,-24482.625661209306,-33495.541929667226
14469.535883609758,4979.70044370895,-25391.31348029536,-32894.77174219749,-37308.57071978697,-36573.444196396376,-24437.609247876317,-33497.46417969038
14432.744912236323,4988.931714168992,-25396.02969837543,-32879.37139026778,-37507.210672761285,-36572.19249870688,-24582.537958924528,-33566.93340145748
14302.814221717623,5017.027856949313,-25354.88013683321,-32816.42887788163,-37650.597113442076,-36526.50553304023,-24648.565012045507,-33579.852709752646
14334.26312616624,5019.039513950291,-25325.82286904131,-32818.28407267143,-37457.567448326045,-36518.01187014722,-24506.631434754305,-33509.77999088526
14452.257985145807,4972.614940716618,-25389.324175038837,-32897.09632362083,-37309.28597560954,-36579.926202288414,-24438.100986254336,-33500.16874076948
14446.29006937624,4970.826801160193,-25411.474753794046,-32895.6658119757,-37467.916306008854,-36587.92812680342,-24567.00349652809,-33563.24536362235
14322.081425438098,5014.569165059229,-25354.6342676442,-32812.27145341295,-37635.26381674574,-36523.55510277213,-24642.485337553662,-33573.281296882786
14309.095061909566,5019.285383139299,-25335.38941566818,-32807.845808010796,-37496.01244878917,-36508.15475084243,-24523.216429140142,-33505.66726990548
14436.611764027091,4983.209667588433,-25375.711962665555,-32881.62891645776,-37306.31319359699,-36562.89417301347,-24426.142802970746,-33481.080351004646
14461.690421305946,4968.882199392581,-25412.97232067255,-32903.55597776842,-37420.84353218598,-36591.50440591627,-24535.822813012936,-33546.39214830305
14337.660591323447,5004.600287032162,-25382.037506346405,-32835.69608160211,-37642.282264504705,-36546.935027472384,-24659.53971857306,-33588.30166915675
14301.54017228367,5029.097798955178,-25337.490479646982,-32802.28022364142,-37553.94817041733,-36509.76407644321,-24568.836339573427,-33528.197828316435
14423.513641776282,5000.599324774662,-25373.521491708936,-32864.99921858302,-37324.619272305885,-36552.321797886114,-24435.64229436425,-33482.600269627605
14478.63304360307,4976.9064756520365,-25409.284282837427,-32905.05354464693,-37380.29746774405,-36593.31489721715,-24499.031841639502,-33532.62347371858
14368.818923094144,5007.75188300036,-25375.19787254308,-32846.089642773826,-37613.627328113005,-36555.76396653223,-24637.702064240228,-33587.27348891181
14295.326387325096,5030.9082902560585,-25333.958904023042,-32804.82832250933,-37587.67695280039,-36516.22373059079,-24589.087020049934,-33545.14045061355
14395.03751934022,5003.013313175835,-25352.22027924303,-32857.26551500148,-37354.66001685381,-36552.0759286971,-24449.433320693177,-33490.088104020135
14481.494066893349,4977.040586118768,-25402.623462989744,-32909.1662656267,-37346.88160978337,-36599.796903109185,-24481.3292600309,-33523.97334861438
14392.243551283307,5000.3311038411985,-25392.87810240723,-32863.4569482156,-37591.00736272423,-36571.2313736953,-24635.86922119489,-33586.11119820013
14298.9250181824,5034.462217624452,-25341.334979693293,-32800.290918384904,-37618.70117410435,-36516.35784105752,-24619.597151231428,-33553.54470652875
14377.51375168726,5020.224156406422,-25351.16974725363,-32830.26460769947,-37385.416017224314,-36528.71835574131,-24461.056227809935,-33482.756731838796
14483.215151216407,4985.534249011785,-25396.99082338701,-32892.24599507404,-37324.44045835024,-36582.76487383424,-24454.50716668453,-33502.51567393728
14419.378569052049,4998.408853818042,-25385.54673022589,-32863.009913326496,-37546.214466835794,-36569.57734460561,-24607.527209225562,-33570.95671545943
14304.490602551772,5033.94812750198,-25340.843241315277,-32795.10531367127,-37633.56508416714,-36510.3675735435,-24631.644741492837,-33556.87511645259
14347.048323994677,5018.614830805639,-25357.003552556464,-32825.68250008613,-37432.2876253471,-36520.76113471522,-24489.3311845459,-33489.35049645311
14476.643738346547,4990.429281047497,-25385.45732324807,-32889.34026829484,-37309.73301049865,-36568.817385294125,-24437.631599620774,-33482.108531249585
14438.42225532797,4994.27378109381,-25403.271663578947,-32882.008896113504,-37497.17473950085,-36574.51708013023,-24575.564214654474,-33552.44947105044
14313.096024167065,5034.417514135542,-25354.947192066575,-32807.80110452189,-37641.8352296156,-36513.943852656346,-24635.556296772516,-33556.76335773031
14331.26799240923,5036.630336836617,-25342.54197389388,-32805.677688798634,-37466.105814707975,-36502.343297284046,-24500.283539328997,-33485.28247896224
14469.401773143027,5008.154214400556,-25376.963660355053,-32867.88259361775,-37297.43955104823,-36554.02053046472,-24421.627750590775,-33467.401083398
14469.267662676295,5005.472005065919,-25396.5437884979,-32873.11290182029,-37449.36435811095,-36570.627876595005,-24545.165842195256,-33533.49519175234
14330.9327162424,5031.131807700612,-25358.389360712692,-32810.32685164533,-37642.55048543817,-36523.55510277213,-24648.58736378996,-33566.10638691263
14315.68882652388,5042.508845628363,-25322.40305213965,-32792.06547642535,-37509.62466116246,-36499.974012371786,-24535.66635080175,-33499.47583669136
14442.445569329926,5008.221269633922,-25368.35823873976,-32861.22177377007,-37306.87198720837,-36548.94668447336,-24425.852230292825,-33465.21061244138
14465.57962484117,4988.7081967244385,-25414.134611384226,-32892.40245728522,-37426.185599110795,-36583.59188837909,-24528.55849606496,-33528.756621927816
14341.080408225109,5019.821825006226,-25381.657526690666,-32831.29278794441,-37638.705985391854,-36536.9214459564,-24649.816709735,-33566.776939246294
14294.566428013615,5038.4855316264075,-25334.11536623423,-32793.160711903656,-37561.123080387486,-36499.2140530603,-24569.641002373817,-33508.77416238477
14405.94517063441,5006.544888799774,-25372.515663208447,-32855.79029986743,-37338.790278290544,-36544.833963493584,-24439.73266359957,-33466.08233047513
14475.01206100131,4990.339874069676,-25404.83628569082,-32889.67554446167,-37370.41799669481,-36579.166242976935,-24490.649937468763,-33509.668232162985
14371.970519062343,5017.385484860598,-25374.728485909523,-32835.383157179735,-37599.12104596151,-36543.626969293,-24627.0626338795,-33559.512622298316
14296.131050125487,5045.123999729633,-25326.06873823032,-32788.77976999042,-37589.19687142335,-36502.87973915097,-24587.857674104893,-33522.29696778023
14388.600216937091,5018.436016849997,-25349.44866293057,-32838.71356710357,-37358.795089578045,-36535.73680350027,-24445.92409681369,-33465.63529558603
14476.24140694635,4984.617827489117,-25404.523361268446,-32895.21877708659,-37353.36361567541,-36585.93882154689,-24476.18835880618,-33501.33103148115
14388.399051236995,5000.956952685947,-25401.282358322427,-32854.91858183367,-37586.53701383317,-36562.29067591318,-24628.426090291276,-33566.575773546196
14289.581989000082,5031.80236003427,-25338.853936058753,-32797.11697067225,-37625.1831799964,-36507.68536420886,-24618.077232608466,-33537.45145052093
14367.857798082567,5019.620659306128,-25339.323322692315,-32824.140229718716,-37394.379066750895,-36518.61536724751,-24461.57031793241,-33466.1493857085
14483.639834361058,4990.965722914425,-25395.02386987494,-32881.3606955243,-37318.40548734731,-36571.968981262326,-24447.55577415893,-33482.264993460776
14413.880039916045,4994.27378109381,-25412.324120083347,-32865.04392207193,-37554.819888451086,-36569.71145507234,-24611.59522671643,-33559.423215320494
14292.800640201645,5025.6332785646055,-25347.101729762762,-32796.26760438295,-37653.99457859929,-36513.67563172289,-24642.910020698313,-33549.655502993526
14343.181472203909,5023.509862841352,-25330.762604565934,-32805.610633565266,-37435.17100038183,-36509.473503765286,-24484.592614721372,-33472.45257764489
14476.084944735163,4999.258220107344,-25378.103599322272,-32869.26840177398,-37313.644565778326,-36564.52585035871,-24438.12333799879,-33475.22419395736
14438.310496605694,4992.195068859466,-25407.138515369716,-32870.98948609704,-37507.791818117126,-36578.49569064328,-24582.113275779877,-33553.29883733974
14309.83266947659,5025.789740775793,-25358.702285135067,-32801.09558118529,-37659.828383902124,-36524.04684115015,-24653.616506292405,-33564.742930500855
14326.819995262624,5032.070580967735,-25328.90740977614,-32794.01007819296,-37486.53530914013,-36504.35495428502,-24516.84618197038,-33487.2047289854
14454.269642146784,4992.731510726394,-25371.196910285584,-32864.93216334965,-37312.88460646685,-36562.22362067981,-24435.284666452964,-33469.85977528808
14462.606842828614,4994.6984642384605,-25397.12493385374,-32868.93312560715,-37458.52857333763,-36577.40045516496,-24558.57688886844,-33536.44562202044
14330.21746041983,5032.003525734369,-25358.143491523682,-32799.508607328964,-37652.36290125405,-36523.28688183867,-24651.649552780338,-33560.22787812089
14311.553753799648,5049.4602381539635,-25317.530371848392,-32772.619458749235,-37523.23687353574,-36492.44147449034,-24538.393263625298,-33491.94329880992
14437.036447171742,5017.7654645163375,-25361.987991569997,-32839.78645083743,-37307.49783605312,-36544.006948948736,-24417.090346466346,-33455.264086158764
14467.635985331057,4993.133842126589,-25404.523361268446,-32874.78928265444,-37416.90962516185,-36580.12736798851,-24517.404975581765,-33518.899502623026
14343.60615534856,5022.235813407399,-25375.98018359902,-32817.12178195975,-37641.16467728194,-36538.10608841254,-24649.88376496837,-33564.65352352304
14286.430393031884,5037.591461848195,-25340.887944804188,-32777.648601251676,-37573.75181600473,-36497.716486181795,-24568.72458085115,-33508.10361005111
14409.342635791618,5013.317467369731,-25347.30289546286,-32828.76704082097,-37331.05657470901,-36528.51719004121,-24421.672454079682,-33449.38557736702
14474.252101689828,4983.902571666547,-25407.27262583645,-32878.74554142303,-37369.211002494216,-36577.57926912061,-24489.062963612436,-33503.655612904506
14370.137676017008,5011.931659213503,-25376.471921977034,-32826.1965902086,-37605.625403598,-36544.923370471406,-24628.649607735828,-33561.9713141884
14289.40317504444,5039.021973493334,-25328.30391267585,-32776.665124495645,-37596.550595349145,-36497.06828559259,-24586.404810715296,-33517.22312178888
14381.760583133768,5012.915135969536,-25344.374816939213,-32822.21797969556,-37361.9690372907,-36524.44917255035,-24435.68699785316,-33452.2466006573
14474.587377856658,4983.254371077343,-25401.639986233713,-32878.70083793412,-37345.00406324912,-36577.355751676056,-24463.000829577548,-33487.83057783015
14389.8966181155,5000.733435241394,-25384.607956958767,-32841.485183416036,-37577.05987418412,-36559.317893900625,-24616.9596453857,-33557.59037227516
14288.285587821674,5033.523444357329,-25336.507002890947,-32775.70399948407,-37625.54080790768,-36502.45505600632,-24610.790563916038,-33531.0141481178
14361.196978234886,5019.955935472958,-25332.841316800277,-32804.33658413131,-37396.189558051774,-36515.75434395723,-24456.98821031907,-33460.53909785022
14466.160770197008,4975.565370984718,-25397.7954861874,-32883.30529729191,-37330.58718807545,-36584.70947560185,-24458.150501030745,-33489.68577261994
14412.09190035962,4990.317522325221,-25406.02092814695,-32856.37144522327,-37544.09105111254,-36576.34992317556,-24610.76821217158,-33563.08890141117
14287.436221532373,5018.436016849997,-25358.657581646155,-32794.568871804346,-37655.69331117789,-36521.5210940267,-24649.369674845897,-33558.05975890872
14326.64118130698,5008.869470223126,-25350.141567008683,-32815.13247670323,-37456.42750935883,-36526.863160951514,-24502.205789352156,-33489.37284819756
14453.95671772441,4973.576065728195,-25394.956814641573,-32882.433579258155,-37321.758249015606,-36580.216774966335,-24447.13109101428,-33485.21542372888
