Fp1,Fp2,C3,C4,P7,P8,O1,O2
14244.29735473363,5030.573014089228,-24826.037863020643,-32366.60002071858,-36391.47864478572,-35952.62449415022,-22657.695133411307,-32506.097257864152
14351.853949052567,4976.191219829467,-24878.40800027943,-32455.80583283971,-36173.66089506875,-36023.12189616226,-22507.02202403808,-32492.66385944651
14366.717859115346,4946.731620637372,-24932.298056161173,-32492.4179902575,-36308.37485890089,-36076.296696221434,-22631.52124065414,-32568.190403960994
14263.63161368747,4999.057054407246,-24887.706325972835,-32413.248111396806,-36548.38789086198,-36010.02377391145,-22803.629672960007,-32600.287508998816
14230.640438871436,5028.784874532804,-24836.49847942573,-32374.087855111105,-36451.649540859406,-35952.87036333923,-22708.388889835944,-32533.701662266456
14327.244678407274,4981.041548376268,-24879.39147703546,-32453.61536188309,-36206.18268325122,-36018.38332633774,-22532.413605739308,-32505.76198169732
14369.891806828,4943.69178339145,-24939.182393453408,-32498.698830449444,-36274.17668988427,-36071.87105081929,-22610.24237993269,-32573.107787741163
14278.16024758342,4989.334045569187,-24903.151381391453,-32427.84380052612,-36527.578416774086,-36023.12189616226,-22799.360489769042,-32609.83170388123
14223.487880645738,5040.519540371841,-24837.794880604135,-32361.235602049306,-36493.06732333509,-35951.05987203835,-22747.705608332828,-32541.480069336903
14313.900686967456,5006.477833566408,-24860.616011693004,-32417.830219010142,-36231.32839576345,-35992.9470411476,-22545.399969267844,-32490.406333256524
14382.632301167525,4956.901664364536,-24925.570181080126,-32490.76396116781,-36230.07669807395,-36064.31616119339,-22564.08602763248,-32548.140889184582
14310.88320146599,4994.251429349355,-24903.88898895848,-32440.874867543564,-36484.931288353364,-36030.56502706588,-22757.36156193752,-32600.421619465546
14236.340133707541,5048.476761397929,-24833.14571775743,-32360.11801482654,-36517.20720734682,-35954.8373168513,-22761.69780036185,-32546.643322306078
14296.466326292317,5018.123092427622,-24846.35559873052,-32405.51440781527,-36269.14754738183,-35986.040352110904,-22571.953841680748,-32492.753266424334
14373.378678963029,4956.588739942163,-24925.100794446564,-32504.37617354109,-36205.288613473014,-36073.726245609076,-22542.31542853301,-32540.362482114135
14320.986189959787,4980.862734420626,-24921.300997889164,-32459.605629397112,-36451.13545073694,-36047.75351855201,-22738.20611693932,-32606.25542476838
14231.15452899391,5040.966575260946,-24847.093206297544,-32363.515479983747,-36545.057480938136,-35949.562305159845,-22783.490751205773,-32558.422691634023
14279.858980162024,5034.5516246022735,-24833.81627009109,-32378.424093535436,-36310.56532985751,-35958.301837241874,-22594.104420435957,-32483.589051197658
14373.244568496297,4967.451687747442,-24912.44970708486,-32474.55894643771,-36187.56368011996,-36043.730204550055,-22524.45638471322,-32508.53359800978
14340.476911124815,4966.199990057944,-24934.957913751354,-32468.76984462379,-36409.918833961354,-36044.46781211708,-22708.902979958413,-32586.518834414346
14238.888232575446,5025.7450372868825,-24867.813273407613,-32375.719532456344,-36564.481146869795,-35971.82464263733,-22810.022271874222,-32576.862880809655
14258.893043862945,5029.298964655276,-24837.638418392948,-32369.192823075395,-36367.53992647409,-35955.73138662951,-22643.188851259813,-32503.616214229613
14366.874321326533,4974.336025039676,-24892.98133766429,-32456.342274706636,-36179.137072460304,-36036.264721901985,-22514.152230519325,-32502.610385729124
14361.018164279243,4961.88610337807,-24925.41371886894,-32472.681399903468,-36354.15123154536,-36053.67673083267,-22665.741761415215,-32578.807482577264
14258.244843273742,5021.90053724057,-24865.578098962083,-32387.253032595283,-36557.23918166628,-35986.71090444457,-22803.830838660102,-32585.513005913857
14246.890157090445,5037.300889170277,-24827.20015373232,-32364.92363988443,-36409.94118570581,-35954.21146800655,-22673.67663069685,-32512.981595156387
14347.540062372693,4979.074594864202,-24880.48671251377,-32443.065338500186,-36187.45192139768,-36014.18119838014,-22514.666320641794,-32496.687173448467
14366.98608004881,4948.385649727064,-24933.572105595125,-32491.903900135032,-36309.80537054603,-36065.72432109408,-22629.57663888653,-32575.00768601986
14271.119448079999,5005.919039955025,-24880.576119491594,-32420.22185566686,-36543.582265804085,-36007.498026788,-22797.304129279153,-32605.048430567796
14233.546165650627,5038.887863026603,-24823.802688575113,-32367.136462585506,-36449.9508082808,-35955.06083429585,-22700.655186254407,-32532.91935121052
14325.054207450654,4985.690711222972,-24865.041657095153,-32432.962350006386,-36204.238081483614,-36004.74876222,-22517.75086137663,-32496.128379837082
14380.017147066254,4954.7782486412825,-24918.439974598885,-32489.19933905594,-36255.80355594201,-36058.32589367937,-22576.915928949828,-32557.506270111357
14293.895875679957,4999.727606740905,-24885.985241649778,-32425.452163869402,-36506.053686863626,-36016.259910614484,-22756.959230537326,-32595.01249730736
14229.902831304411,5037.524406614829,-24828.407147932907,-32373.126730099528,-36488.75343665522,-35956.133718029705,-22717.9107329739,-32540.608351303144
14312.291361366673,4999.817013718726,-24854.53633720116,-32424.8039632802,-36235.32935802095,-35986.93442188912,-22525.216344024702,-32494.00496411383
14380.911216844466,4953.50419920733,-24924.340835135084,-32502.9233101515,-36227.01450908357,-36067.33364669486,-22546.51755649061,-32554.91346775454
14310.50322181025,4988.439975790975,-24909.25340762775,-32455.962295050897,-36483.2102040303,-36030.386213110236,-22743.302314675133,-32614.25734928338
14234.283773217652,5046.845084052692,-24834.106842769008,-32371.98679113231,-36520.55996901512,-35952.155107516664,-22744.03992224216,-32567.5869068607
14297.718023981814,5025.655630309061,-24838.688950382348,-32411.23645439583,-36271.293314849536,-35973.053988582375,-22547.255164057635,-32504.040897374263
14383.816943623657,4970.8044494157375,-24913.388480351983,-32504.71144970792,-36198.13605524731,-36057.364768667794,-22519.382538721864,-32546.24099090588
14330.485681353293,4981.019196631813,-24917.769422265224,-32479.342219751146,-36435.89156101842,-36043.35022489431,-22712.523962560175,-32616.850151640196
14245.951383823322,5042.754714817371,-24843.159299273408,-32390.22581460784,-36538.03903317917,-35960.469956454035,-22765.117617263513,-32586.40707569207
14279.769573184201,5025.029781464313,-24838.979523060265,-32415.99737596481,-36324.24459746416,-35973.970410105045,-22592.204522157255,-32526.504400551847
14380.642995911003,4970.022138359802,-24903.68782325838,-32509.04768813225,-36185.73083707462,-36061.09750999183,-22512.49820142963,-32550.95720898595
14351.518672885737,4970.580931971184,-24928.92294274842,-32510.008813143828,-36396.19486286579,-36063.35503618181,-22686.148904102913,-32626.439050011522
14248.991221069244,5033.523444357329,-24859.16314830341,-32417.56199807668,-36555.696911298866,-35980.519471230444,-22787.22349252981,-32612.6480236826
14263.519854965194,5040.8324647942145,-24829.0106450332,-32410.521198573257,-36363.15898456085,-35961.96752333254,-22627.609685374464,-32536.786203001288
14357.84421656659,4970.8044494157375,-24902.83845696908,-32514.322699823704,-36181.796930050485,-36047.95468425211,-22507.044375782538,-32538.194362901973
14362.158103246464,4963.830705145682,-24935.673169573925,-32526.48204880739,-36346.015196563625,-36071.692236863644,-22651.97308683075,-32607.820046880253
14249.974697825277,5013.8315574922035,-24885.940538160867,-32444.965236778884,-36555.0263589652,-35987.247346311495,-22796.924149623414,-32614.838494639218
14238.128273263965,5039.491360126896,-24841.63938065045,-32409.828294495142,-36421.16176142237,-35951.93159007211,-22673.92249988586,-32547.850316506665
14341.21451869184,4990.5857432586845,-24891.707288230336,-32492.976783868886,-36189.30711618747,-36021.445515328116,-22510.12891651737,-32531.06415642073
14357.866568311045,4948.743277638349,-24953.17458548243,-32549.39258687408,-36309.246576934645,-36092.81463537391,-22628.928438297324,-32618.101849329694
14262.715192164802,4998.98999917388,-24900.670337756914,-32462.533707920757,-36545.03512919368,-36010.806084967386,-22793.03494608819,-32631.110564602684
14227.377084180962,5038.932566515514,-24833.369235201986,-32403.03336418073,-36455.94107579483,-35947.058909780855,-22699.001157164712,-32552.566534586735
14317.275800380206,4989.758728713838,-24872.149511831944,-32474.268373759794,-36204.93098556173,-36006.11221863177,-22518.17554452128,-32518.7259934814
14371.836408595611,4950.866693361604,-24930.666378815935,-32530.974749442907,-36247.51105874909,-36064.27145770448,-22577.653536516853,-32578.047523265785
14284.709308708825,4989.222286846911,-24904.514837803228,-32469.17217602398,-36505.1149135965,-36019.43385832714,-22770.482035932786,-32617.252483040393
14227.198270225319,5041.927700272525,-24833.682159624357,-32390.114055885562,-36490.720390167284,-35944.62256963523,-22727.45492785632,-32550.64428456358
14304.445899062861,5006.343723099676,-24856.83856688006,-32451.179021737462,-36239.46443074518,-35987.85084341179,-22533.37473075089,-32500.598728728146
14374.920949330444,4954.398268985542,-24930.152288693465,-32527.309063352237,-36220.62191016936,-36060.650475102724,-22545.84700415695,-32556.58984858869
14299.953198427344,4975.766536684816,-24924.519649090726,-32485.71246692091,-36478.38222722796,-36029.670957287664,-22744.531660620174,-32616.15724756208
14220.24687769972,5032.9646507459465,-24852.435273222363,-32403.145122903006,-36533.121649399,-35956.558401174356,-22762.36835269551,-32571.677276096023
14283.189390085863,5018.257202894354,-24851.07181681059,-32435.7563180633,-36281.776282999075,-35978.77603516293,-22562.387295053875,-32507.61717648711
14373.848065596589,4958.846266132148,-24917.545904820672,-32516.021432402307,-36187.317810930945,-36040.5562568374,-22513.861657841404,-32536.96501695693
14327.959934229844,4971.340891282665,-24922.440936856383,-32492.552100724235,-36424.40276436839,-36037.47171610257,-22705.572570034572,-32604.86961661215
14229.858127815502,5030.125979200123,-24854.40222673443,-32406.788457249222,-36544.006948948736,-35965.722616401035,-22773.99125981227,-32584.440122180004
14262.089343320054,5023.75573203036,-24842.57815391757,-32421.22768416735,-36326.97151028771,-35960.335845987305,-22602.307510651055,-32520.692946993466
14367.008431793265,4964.948292368447,-24909.298111116663,-32512.109877122628,-36176.94660150368,-36045.473640617565,-22512.58760840745,-32538.5296390688
14346.26601293874,4959.986205099369,-24936.388425396493,-32507.416010787012,-36381.84504292549,-36059.75640532451,-22684.53957850213,-32616.805448151288
14238.10592151951,5010.702313268461,-24877.648040967946,-32430.19073369393,-36563.31885615812,-35996.25509932698,-22805.395460771975,-32619.130029574637
14259.876520618978,5038.172607204033,-24831.91637181239,-32403.23452988083,-36373.82076666603,-35962.012226821455,-22643.30060998209,-32539.71428152493
14369.243606238797,4985.51189726733,-24887.751029461746,-32485.354839009626,-36171.649238067774,-36038.008157969496,-22504.518628659087,-32525.34210984017
14371.232911495319,4964.858885390626,-24933.817974784135,-32521.05057490475,-36330.994824289664,-36064.7631960825,-22642.518298926152,-32589.715133871454
14263.92218636539,5015.7091040264495,-24879.994974135756,-32431.285969172237,-36549.48312634029,-35984.67689569914,-22795.292472278175,-32604.579043934235
14247.091322790542,5044.1405229736,-24831.49168866774,-32388.772951218245,-36422.41345911186,-35948.06473828134,-22679.44338076632,-32529.924217453507
14349.954050773866,4998.878240451603,-24874.74231418876,-32462.28783873175,-36184.54619461849,-36007.98976516602,-22507.804335094017,-32498.56471998271
14374.51861793025,4961.103792322135,-24936.813108541144,-32513.741554467866,-36287.34186736845,-36056.82832680087,-22607.76133629815,-32576.147624987083
14271.991166113756,5004.376769587609,-24902.279663357695,-32445.412271667992,-36541.056518680634,-36010.515512289465,-22794.823085644613,-32618.392422007615
14229.992238282233,5046.599214863684,-24838.241915493243,-32389.063523896162,-36468.88273583445,-35952.64684589468,-22717.240180640245,-32550.331360141205
14322.863736494033,5004.0861969096895,-24872.708305443324,-32458.018655540785,-36216.10685778938,-36004.726410475545,-22532.860640628416,-32514.367403312615
14380.710051144368,4956.8346091311705,-24941.574030110125,-32531.757060498843,-36255.46827977518,-36083.60571665832,-22591.5339698236,-32587.703476870476
14299.506163538237,4995.41372006103,-24915.40013735296,-32468.836899857153,-36515.24025383476,-36035.348300379315,-22790.64330943147,-32633.323387303757
14234.037904028644,5047.962671275458,-24844.54510742964,-32392.237471608816,-36515.46377127931,-35958.74887213098,-22766.123445764002,-32569.44210165049
14301.763689728225,5008.355380100654,-24866.15924431792,-32448.8097368252,-36262.24085834514,-36017.3998495817,-22573.786684726085,-32521.609368516132
14381.872341856044,4958.689803920961,-24932.07453871662,-32526.370290085113,-36225.74045964962,-36070.149966496225,-22568.176396867802,-32560.6355143351
14321.276762637706,4992.664455493028,-24914.036680941186,-32472.03319931426,-36464.166517754384,-36029.8050677544,-22748.756140322228,-32610.256387025882
14232.71915110578,5049.817866065248,-24842.332284728564,-32392.282175097727,-36532.406393576435,-35976.630267695225,-22778.528663936697,-32578.98629653291
14290.900741922946,5037.8373310372035,-24839.873592838478,-32410.051811939695,-36288.07947493547,-35968.7401019025,-22587.018917443624,-32513.160409112028
14388.197885536896,4981.89091466557,-24907.577026793602,-32500.755190939333,-36185.17204346324,-36047.23942842954,-22532.03362608357,-32541.81534550373
14345.707219327358,4990.5857432586845,-24920.56339032214,-32488.57349021119,-36418.7477730212,-36051.44155638714,-22717.083718429058,-32609.78700039232
14244.900851833923,5052.835351566715,-24854.290468012154,-32397.4454280669,-36552.724129286304,-35975.8926601282,-22796.678280434404,-32589.670430382543
14274.248692303741,5050.153142232078,-24832.273999723675,-32402.18399789143,-36336.04631853656,-35970.08120656982,-22621.127679482423,-32515.283824835282
14375.055059797176,4986.584781001185,-24903.665471513927,-32500.44226651696,-36180.52288061653,-36057.8118035569,-22524.88106785787,-32535.735671011887
14354.379696176016,4977.040586118768,-24934.60028584007,-32507.48306602038,-36375.54185098909,-36077.97307705558,-22691.20039834981,-32618.727698174444
14242.95625006631,5025.253298908866,-24879.100904357543,-32427.26265517028,-36559.876687512005,-36002.60299475229,-22814.738489954292,-32616.60428245119
14253.215700771298,5042.844121795192,-24836.96786605929,-32396.327840844137,-36382.7391127037,-35969.03067458042,-22658.209223533777,-32530.61712153162
14356.771332832735,4984.818993189215,-24899.575102278603,-32488.28291753327,-36178.62298233783,-36040.33273939285,-22515.89566658684,-32523.129287139094
14376.999661564787,4973.6207692171065,-24933.058015472656,-32501.604557228635,-36317.203797960734,-36064.38321642676,-22639.38905470241,-32591.391514705603
14268.97368061229,5024.292173897287,-24881.470189269807,-32413.89631198601,-36540.56478030262,-35994.26579407046,-22794.063126333134,-32602.232110766425
14240.609316898504,5047.828560808726,-24836.900810825922,-32387.141273873007,-36431.91295050537,-35964.78384313391,-22691.982709405747,-32535.62391228961
14345.595460605082,5004.354417843154,-24876.195177578353,-32464.545364921734,-36185.59672660789,-36029.58155030984,-22514.21928575269,-32503.884435163076
14378.60898716557,4971.832629660682,-24932.231000927808,-32506.454885775434,-36274.020227673085,-36060.60577161381,-22604.09565020748,-32575.00768601986
14278.339061539062,5013.742150514383,-24899.038660411676,-32438.147954720018,-36526.95256792934,-36008.59326226631,-22787.98345184129,-32611.17280854855
14229.612258626494,5049.549645131784,-24836.789052103646,-32380.391047047502,-36468.97214281227,-35954.09970928427,-22720.749404519727,-32546.397453117068
14318.21457364733,5002.99096143138,-24868.014439107712,-32448.02742576926,-36212.150599020795,-35994.802235937386,-22529.351416748934,-32500.57637698369
14371.836408595611,4951.0231555727905,-24939.987056253798,-32525.96795868492,-36240.872590645864,-36070.90992580771,-22575.686583004783,-32564.412959148045
14293.560599513126,4989.55756301374,-24911.622692540015,-32465.774710866775,-36494.52018672469,-36033.89543698972,-22769.31974522111,-32613.609148694177
14222.794976567624,5041.704182827972,-24838.73365387126,-32386.090741883607,-36502.94679438434,-35961.83341286581,-22751.527756634685,-32554.622895076624
14293.91822742441,5008.42243533402,-24850.66948541039,-32436.113945974583,-36250.036805872536,-35984.36397127676,-22556.575841495498,-32504.24206307436
14373.959824318867,4954.3088620077215,-24922.060957200643,-32521.139981882574,-36205.579186150935,-36068.36182693981,-22548.864489658416,-32560.92608701302
14310.391463087972,4979.141650097567,-24914.818991997123,-32482.985554097362,-36455.27052346117,-36046.680634818156,-22741.31300941861,-32623.466267998967
14226.415959169384,5035.892729269592,-24841.795842861637,-32388.348268073594,-36535.73680350027,-35966.124947801225,-22773.343059223065,-32575.745293586886
14284.508143008727,5027.42141812103,-24832.832793335056,-32411.057640440184,-36286.98423945716,-35973.50102347148,-22572.669097503316,-32500.263452561314
14377.312585987162,4964.367147012609,-24900.40211682345,-32497.737705437867,-36173.45972936866,-36054.81666979989,-22512.431146196264,-32530.19243838697
14332.07265520962,4958.4215829874975,-24922.507992089748,-32487.455902988426,-36407.28132811563,-36052.38032965426,-22705.97490143477,-32612.08923007122
14235.177842995865,5022.906365741059,-24851.49649995524,-32397.423076322448,-36544.766908260215,-35981.391189264206,-22790.375088498007,-32592.017363550352
14262.894006120445,5030.416551878042,-24826.216676976288,-32399.390029834514,-36334.95108305825,-35969.41065423616,-22620.770051571137,-32519.754173726342
14361.599309635081,4973.039623861268,-24897.07170689961,-32491.52392047929,-36174.37615089132,-36042.389099882734,-22518.399061965833,-32531.86881922112
14349.797588562678,4967.049356347246,-24928.386500881494,-32497.178911826482,-36362.62254269392,-36070.03820777395,-22676.738819687227,-32608.35648874718
14252.656907159915,5033.277575168321,-24862.20298554933,-32407.5484165607,-36549.3266641291,-35995.51749175996,-22800.768649669728,-32603.528511944834
14253.953308338323,5046.554511374773,-24817.991235016732,-32377.73118945732,-36379.5875167355,-35945.784860346896,-22654.43177872083,-32519.977691170898
14353.55268163117,4982.94144665497,-24877.98331713478,-32469.19452776844,-36169.011732222054,-36030.6544340437,-22511.3135589735,-32513.898016679053
14368.327184716129,4961.55082721124,-24926.576009580614,-32502.744496195854,-36310.76649555761,-36068.831213573365,-22640.685455880815,-32587.681125126022
14266.000898599732,5018.011333705346,-24874.407038021927,-32420.579483578145,-36537.636701778974,-36004.50289303099,-22798.824047902115,-32605.45076196799
14233.81438658409,5043.581729362218,-24823.78033683066,-32377.97705864633,-36434.662215073375,-35950.41167144915,-22697.235369352744,-32535.62391228961
14334.64310582198,4998.833536962693,-24865.466340239807,-32453.81652758319,-36191.63169761082,-36009.53203553343,-22521.707120145216,-32503.616214229613
14374.026879552232,4959.606225443629,-24924.02791071271,-32507.61717648711,-36265.615971757885,-36066.730149594565,-22599.625301316417,-32571.610220862654
14287.704442465836,5010.5458510572735,-24882.36425904802,-32429.050794726707,-36511.84278867755,-36007.56508202137,-22778.349849981052,-32601.941538088508
14247.851282102023,5065.888770328614,-24806.211865688787,-32356.854660136065,-36457.88567756244,-35936.0842032533,-22708.567703791585,-32530.19243838697
14340.342800658083,5028.829578021715,-24833.2127729908,-32417.673756798955,-36195.87852905733,-35985.7944829219,-22513.03464329656,-32485.779522154276
14395.953940862888,4969.530399981785,-24914.21549489683,-32505.404353786034,-36216.64329965631,-36065.70196934962,-22557.693428718263,-32547.24681940637
14308.580971787092,4993.223249104411,-24901.899683701955,-32452.98951303834,-36481.444416218335,-36025.4017740967,-22764.55882365213,-32607.618881180155
14237.34596220803,5049.124961987133,-24827.62483687697,-32369.93043064242,-36503.97497462928,-35956.15606977416,-22757.473320659796,-32555.472261365925
14305.675245007902,5021.587612818195,-24838.35367421552,-32414.298643386206,-36253.43427102974,-35986.59914572229,-22563.862510187926,-32502.610385729124
14385.090993057609,4963.562484212218,-24910.59451229507,-32502.27510956229,-36195.27503195703,-36060.73988208055,-22544.50589948963,-32546.218639161427
14324.36130337254,4979.834554175682,-24910.974491950812,-32471.966144080896,-36442.50767737719,-36048.53582960794,-22735.993294238247,-32609.071744569752
14230.19340398233,5030.99769723388,-24845.573287674582,-32390.27051809675,-36538.86604772402,-35966.50492745697,-22781.255576760243,-32578.248688965883
14275.187465570863,5013.406874347553,-24841.549973672627,-32416.399707365003,-36309.49244612366,-35982.17350032014,-22600.13939143889,-32509.986461399374
14374.250396996786,4959.338004510165,-24907.465268071326,-32497.96122288242,-36186.557851619466,-36054.72726282207,-22530.89368711635,-32536.473278578913
14337.951164001366,4958.868617876604,-24929.59349508208,-32488.059400088718,-36402.788627480106,-36064.986713527054,-22709.0594421696,-32609.921110859053
14234.395531939928,5016.08908368219,-24865.73456117327,-32399.479436812337,-36559.54141134518,-35992.72352370305,-22806.200123572366,-32597.694706642
14262.290509020151,5030.014220477846,-24830.798784589624,-32386.53777677271,-36351.960760588736,-35969.41065423616,-22632.124737754435,-32518.30131033675
14368.997737049787,4974.067804106213,-24893.271910342206,-32479.72219940689,-36170.95633398966,-36055.397815155724,-22512.386442707353,-32521.609368516132
14362.202806735375,4962.087269078168,-24925.0337392132,-32487.7688274108,-36345.456402952244,-36064.5620303824,-22659.32681075654,-32590.363334460657
14246.86780534599,5007.930696956003,-24875.189349077864,-32407.727230516346,-36550.73482402979,-35983.08992184281,-22801.17098106992,-32601.96388983296
14233.613220883994,5016.983153460402,-24837.124328270475,-32387.565957017658,-36401.603985023976,-35962.146337288184,-22668.066342838567,-32526.81732497422
14337.817053534634,4961.729641166883,-24890.097962629556,-32472.10025454763,-36181.953392261676,-36027.927521220154,-22514.107527030414,-32501.671612462
14358.917100300445,4940.540187423252,-24938.802413797668,-32509.785295699276,-36308.128989711884,-36069.21119322911,-22631.722406354238,-32575.29825869778
14260.72588690828,4997.604191017651,-24889.181541106886,-32435.26457968528,-36545.50451582724,-36010.49316054501,-22801.148629325467,-32607.35066024669
14222.280886445153,5025.119188442134,-24838.35367421552,-32384.727285471832,-36451.247209459216,-35965.54380244539,-22703.091526400036,-32537.792031501776
14316.314675368629,4979.946312897959,-24877.871558412502,-32450.46376591489,-36204.88628207282,-36014.98586118053,-22525.596323680442,-32505.82903693069
14363.253338724773,4946.731620637372,-24935.650817829468,-32503.28093806278,-36263.60431475691,-36073.12274850878,-22594.439696602785,-32570.87261329563
14266.358526511018,4981.399176287553,-24908.35933784954,-32447.714501346887,-36518.347146314045,-36038.09756494732,-22782.64138491647,-32614.838494639218
14209.652150827904,5023.778083774815,-24844.43334870736,-32383.855567438077,-36489.17811979987,-35960.44760470958,-22738.675503572882,-32549.481993851903
14295.482849536284,4991.435109547986,-24861.73359891577,-32435.242227940827,-36226.74628815011,-35988.47669225653,-22537.88978313086,-32492.216824557407
14365.488513170305,4944.652908403028,-24923.46911710133,-32504.599690985644,-36215.88334034483,-36061.18691696965,-22549.065655358514,-32539.937798969484
14290.677224478392,4972.994920372358,-24913.36612860753,-32461.259658486804,-36479.07513130607,-36034.74480327902,-22754.67935260288,-32603.282642755825
14208.936895005334,5024.359229130653,-24846.10972954151,-32382.760331959766,-36518.07892538058,-35963.93447684461,-22758.16622473791,-32559.5849823457
14277.82497141659,5005.002618432358,-24847.897869097935,-32412.756373018787,-36262.26321008959,-35983.29108754291,-22556.41937928431,-32489.15463556703
14372.149333017986,4954.442972474453,-24913.254369885253,-32492.395638513048,-36190.603517365875,-36049.76517555299,-22526.646855669842,-32520.8270574602
14320.248582392764,4973.285493050277,-24916.27185538672,-32466.735835878353,-36433.142296450416,-36036.44353585762,-22720.883514986457,-32593.02319205084
14222.325589934062,5028.047266965779,-24847.897869097935,-32371.919735898944,-36535.93796920037,-35962.66042741066,-22772.65015514495,-32562.96009575845
14266.447933488838,5020.514729084341,-24830.977598545265,-32384.12378837154,-36305.80440828853,-35966.907258857165,-22586.080144176503,-32491.210996056918
14370.182379505919,4959.963853354914,-24895.372974321006,-32476.771769138788,-36175.225517180625,-36044.713681306086,-22510.73241361766,-32514.63562424608
14335.492472111282,4953.8394753741595,-24920.36222462204,-32474.38013248207,-36389.10935987346,-36056.873030289775,-22686.01479363618,-32589.938651316006
14230.774549338168,5014.144481914578,-24858.984334347766,-32386.56012851717,-36554.624027565005,-35992.32119230285,-22792.207931543344,-32584.954212302473
14254.109770549509,5028.918984999536,-24825.903752553913,-32373.685523710912,-36362.510783971644,-35962.90629659966,-22629.643694119895,-32511.171103855504
14363.767428847246,4974.626597717595,-24882.900700914946,-32457.415158440494,-36167.760034532555,-36030.54267532143,-22500.69648035723,-32502.90095840704
14361.308736957162,4962.735469667372,-24921.50216358926,-32474.55894643771,-36336.24748423666,-36055.531925622454,-22644.038217549114,-32578.651020366076
14253.841549616045,5021.0511709512675,-24867.25447979623,-32393.55622453168,-36549.08079494009,-35993.5952417368,-22789.548073953163,-32594.40900020707
14254.57915718307,5054.981119034424,-24809.16229595689,-32352.45136647837,-36396.66424949935,-35943.70614811256,-22652.084845553025,-32502.14099909556
14358.939452044899,4996.240734605877,-24862.78413090517,-32431.911818016986,-36171.78334853451,-36011.02960241194,-22497.768401833582,-32481.867966874597
14379.726574388334,4965.283568535277,-24916.093041431075,-32474.178966781972,-36287.453626090726,-36057.09654773433,-22611.22585668872,-32560.88138352411
14278.719041194803,5014.502109825863,-24869.48965424176,-32398.585367034124,-36525.74557372875,-35998.49027377251,-22780.16034128193,-32587.502311170378
14237.927107563866,5046.308642185765,-24816.225447204764,-32347.154003042462,-36446.82156405706,-35942.61091263425,-22700.051689154112,-32521.00587141584
14323.757806272246,4993.6926357379725,-24859.05138958113,-32427.821448781666,-36197.800779080484,-36008.36974482176,-22519.1143177884,-32491.3674582681
14370.204731250375,4951.4925422063525,-24925.83840201359,-32481.823263385686,-36247.42165177127,-36070.507594407514,-22575.016030671126,-32551.694816552976
14289.246712833252,4998.766481729327,-24889.44976204035,-32414.477457341847,-36501.09159959455,-36017.19868388161,-22767.777474853694,-32600.488674698914
14235.91545056289,5051.717764343949,-24812.984444258745,-32336.983959315297,-36474.40361671491,-35937.84999106527,-22719.005968452213,-32532.271150621316
14321.701445782357,5026.8626245096475,-24824.51794439768,-32381.195709847896,-36209.15546526378,-35966.23670652351,-22510.955931062213,-32463.763053865798
14383.772240134746,4964.836533646171,-24905.654776770447,-32479.67749591798,-36200.08065701493,-36056.1577744672,-22531.541887705553,-32520.357670826637
14303.417718817916,4979.65574022004,-24902.83845696908,-32440.740757076834,-36463.58537239854,-36032.17435266666,-22737.82613728358,-32585.714171613956
14221.09624398902,5034.417514135542,-24831.670502623383,-32351.333779255605,-36511.75338169973,-35955.15024127367,-22750.991314767758,-32544.944589727475
14286.944483154355,5020.5817843177065,-24830.30704621161,-32383.810863949166,-36259.402186799314,-35961.83341286581,-22553.536004249574,-32474.648353415534
14373.736306874313,4960.992033599858,-24903.06197441363,-32473.977801081874,-36173.92911600222,-36049.27343717497,-22517.035605554058,-32512.936891667476
14316.180564901897,4965.216513301911,-24915.02015769722,-32454.151803750017,-36416.46789508675,-36039.528076592454,-22710.422898581375,-32588.083456526216
14216.558839864594,5020.447673850975,-24847.33907548655,-32367.359980030058,-36534.03807092167,-35968.40482573567,-22777.299317991652,-32565.374084159626
14252.00870657071,5012.378694102609,-24833.682159624357,-32382.60386974858,-36311.1688269578,-35964.11329080025,-22598.306548393553,-32491.5686239682
14354.871434554034,4956.78990564226,-24902.816105224625,-32466.489966689347,-36169.861098511356,-36043.88666676124,-22515.962721820204,-32513.495685278856
14324.987152217289,4952.990109084858,-24930.77813753821,-32469.261583001804,-36379.520461502136,-36050.83805928684,-22690.686308227338,-32587.92699431503
14218.749310821213,5015.262069137343,-24862.426502993883,-32381.17335810344,-36548.49964958426,-35975.579735705825,-22795.113658322534,-32578.941593043997
14231.422749927373,5025.029781464313,-24830.463508422796,-32374.02079987774,-36362.91311537184,-35963.84506986679,-22637.310342468067,-32511.14875211105
14345.282536182707,4971.497353493852,-24883.571253248603,-32459.627981141566,-36164.474328097625,-36037.8069922694,-22505.36799494839,-32513.227464345393
14356.100780499075,4961.260254533321,-24914.304901874653,-32477.62113542809,-36312.17465545829,-36063.35503618181,-22633.19762148829,-32579.142758744096
14249.080628047066,5014.367999359131,-24860.884232626468,-32398.8982914565,-36527.623120263,-35993.84111092581,-22776.673469146906,-32582.674334368032
14229.72401734877,5037.055019981268,-24812.515057625184,-32355.200631046373,-36398.29592684459,-35941.20275273356,-22653.38124673143,-32505.225539830393
14338.822882035123,4990.742205469872,-24855.34100000155,-32436.18100120795,-36161.613304807346,-36010.26964310046,-22483.35152665991,-32482.359705252613
14362.627489880026,4951.581949184174,-24920.764556022234,-32503.19153108496,-36269.549878782025,-36071.692236863644,-22586.12484766541,-32563.004799247363
14267.118485822499,5003.460348064941,-24874.809369422124,-32418.99250972182,-36511.10518111053,-36008.928538433145,-22759.127349749488,-32597.717058386454
14225.901869046911,5042.307679928265,-24817.298330938618,-32367.06940735214,-36437.7020523193,-35960.26879075394,-22678.25873831019,-32530.30419710925
14319.823899248113,4999.74995848536,-24852.859956367014,-32424.535742346736,-36184.948526018685,-36008.81677971086,-22493.49921864262,-32494.161426325016
14374.451562696882,4950.687879405961,-24921.99390196728,-32499.347031038647,-36227.238026528124,-36064.494975149035,-22548.283344302577,-32560.25553467936
14288.665567477414,4985.981283900891,-24898.9269016894,-32440.89721928802,-36491.59210820104,-36038.81282076989,-22745.87276528749,-32615.531398717332
14226.080683002554,5035.468046124941,-24827.28956071014,-32362.777872416722,-36485.914765109395,-35955.39611046268,-22716.0108346952,-32555.7851857883
14308.513916553728,5012.669266780528,-24837.05727303711,-32406.341422360114,-36219.414915968766,-35975.60208745028,-22507.290244971544,-32492.216824557407
14381.402955222484,4957.080478320179,-24909.8792564725,-32492.462693746413,-36194.962107534666,-36063.66796060419,-22511.917056073795,-32541.278903636805
14318.259277136242,4985.534249011785,-24898.055183655644,-32450.799042081722,-36448.27442744666,-36032.24140790003,-22703.046822911125,-32592.218529250447
14232.093302261032,5039.781932804815,-24828.585961888548,-32370.60098297608,-36511.06047762161,-35953.25034299497,-22721.576419064575,-32554.198211931973
14294.052337891144,5025.208595419955,-24826.61900837648,-32398.87593971204,-36270.5110037936,-35966.348465245785,-22533.531192962077,-32498.967051382908
14387.974368092344,4965.596492957651,-24894.300090587152,-32492.306231535225,-36169.235249666606,-36045.13836445074,-22482.077477225957,-32532.852295977154
14339.672248324425,4972.123202338601,-24906.146515148463,-32475.721237149388,-36403.74975249168,-36038.87987600325,-22668.938060872326,-32598.83464560922
14242.665677388391,5030.885938511603,-24837.90663932641,-32395.16555013246,-36531.624082520495,-35967.84603212429,-22745.135157720466,-32575.29825869778
14272.326442280584,5025.141540186589,-24821.567514129583,-32397.26661411126,-36315.683879337776,-35960.7381773875,-22574.077257404002,-32507.99715614285
14376.329109231128,4967.898722636548,-24886.678145727892,-32483.253775030826,-36163.24498215258,-36029.17921890965,-22482.72567781516,-32520.134153382085
14360.012335778754,4971.966740127414,-24912.02502394021,-32493.33441178017,-36359.26978102562,-36044.37840513926,-22650.073188552047,-32596.241843252403
14250.086456547555,5029.813054777748,-24851.809424377614,-32408.487189827825,-36538.195495390355,-35975.0432938389,-22771.197291755354,-32599.5946049207
14255.29441300564,5044.654613096072,-24814.48201113725,-32396.7972274777,-36364.254220039154,-35953.04917729487,-22620.680644593318,-32528.44900231946
14364.527388158725,4991.278647336799,-24869.467302497305,-32482.873795375086,-36160.5851245624,-36029.38038460975,-22488.559483118,-32521.698775493955
14370.361193461562,4969.642158704061,-24914.953102463856,-32518.077792892196,-36310.364164157414,-36059.84581230233,-22626.022711518137,-32596.82298860824
14263.184578798364,5021.22998490691,-24865.712209428813,-32437.32094017517,-36534.73097499979,-35992.99174463651,-22783.155475038944,-32615.062012083774
14242.330401221563,5044.81107530726,-24815.57724661556,-32399.12180890105,-36416.0432119421,-35954.85966859575,-22671.754380673694,-32545.413976361036
14346.89186178349,4998.431205562497,-24862.20298554933,-32482.7173331639,-36183.24979344008,-36041.18210568215,-22511.715890373696,-32526.5267522963
14379.592463921603,4961.595530700151,-24920.898666488967,-32526.5267522963,-36274.53431779556,-36063.55620188191,-22606.66610081984,-32593.35846821767
14287.726794210292,5011.976362702413,-24875.34581128905,-32448.161536235995,-36514.74851545674,-35990.8459771688,-22778.260443003233,-32617.65481444059
14241.43633144335,5052.947110288991,-24813.789107059136,-32388.437675051413,-36454.510564149685,-35945.80721209136,-22707.316006102086,-32551.560706086246
14330.955067986855,5012.177528402511,-24845.617991163494,-32452.967161293887,-36201.01943028205,-36000.70309647359,-22526.445689969743,-32512.109877122628
14392.064737327664,4971.854981405138,-24907.822895982612,-32517.831923703186,-36225.11461080487,-36056.49305063403,-22571.37269632491,-32564.16708995904
14300.891971694467,4997.470080550919,-24892.623709753003,-32469.663914402,-36484.95364009782,-36023.501875818,-22766.972812053304,-32618.63829119662
14222.593810867527,5034.149293202078,-24833.257476479706,-32403.65921302548,-36499.88460539396,-35963.53214544441,-22755.998105525745,-32575.63353486461
14294.141744868964,5003.840327720682,-24849.909526098912,-32452.09544326013,-36249.0086256276,-36005.620480253754,-22566.23179510019,-32526.705566251945
14372.931644073922,4950.911396850514,-24921.815088011634,-32537.747328012865,-36205.221558239646,-36075.3132194654,-22560.822672942006,-32567.139871971594
14312.872506722511,4978.60520823064,-24914.617826297024,-32484.728990164876,-36455.44933741681,-36050.36867265328,-22755.059332258625,-32621.45461099799
14230.372217937973,5041.234796194411,-24842.086415539554,-32398.384201334025,-36525.56675977311,-35968.11425305775,-22781.993184327268,-32579.433331422013
14282.563541241116,5022.727551785416,-24840.14181377194,-32420.668890555968,-36287.297163879535,-35984.60984046577,-22593.411516357843,-32516.87079869161
14376.776144120235,4964.590664457162,-24908.918131460923,-32507.348955553647,-36178.13124395982,-36055.75544306701,-22535.78871915206,-32541.97180771492
14336.945335500877,4972.279664549788,-24920.384576366494,-32490.741609423356,-36405.42613332583,-36065.00906527151,-22721.531715575664,-32619.26414004137
14241.212813998798,5032.651726323572,-24847.29437199764,-32402.18399789143,-36537.9719779458,-35984.587488721314,-22795.739507167284,-32601.06982005475
14263.184578798364,5025.387409375598,-24825.546124642628,-32407.526064816248,-36326.90445505434,-35973.9927618495,-22619.205429459267,-32525.610330773634
14367.388411449005,4968.07753659219,-24886.9240149169,-32489.892243134054,-36161.456842596155,-36038.61165506979,-22515.22511425318,-32524.202170872948
14350.736361829802,4961.126144066589,-24920.004596710754,-32500.844597917152,-36352.07251931102,-36058.75057682402,-22678.169331332367,-32596.085381041215
14243.24682274423,5018.480720338907,-24861.15245355993,-32417.740812032323,-36540.40831809143,-35992.85763416978,-22796.79003915668,-32598.83464560922
14246.24195650124,5033.076409468224,-24822.34982518552,-32399.03240192323,-36376.234755067206,-35963.37568323323,-22652.3977699754,-32524.29157785077
14347.9870972618,4972.547885483252,-24886.119352116508,-32491.52392047929,-36173.59383983539,-36028.03927994243,-22520.187201522258,-32520.40237431555
14366.404934692971,4954.040641074257,-24927.403024125462,-32506.63369973108,-36309.42539089029,-36061.54454488093,-22647.703903639784,-32591.659735639067
14264.995070099243,5008.42243533402,-24872.484787998772,-32429.788402293732,-36533.07694591009,-36005.46401804257,-22803.294396793175,-32611.955119604485
14232.71915110578,5030.237737922399,-24826.551953143116,-32395.21025362137,-36426.36971788046,-35952.24451449448,-22702.800953722115,-32545.34692112767
14323.087253938587,4972.704347694439,-24880.419657280407,-32476.928231349975,-36195.38679067932,-36030.162695665684,-22541.778986666082,-32529.29836860876
14372.350498718084,4948.40800147152,-24926.598361325072,-32528.538409297278,-36268.11936713688,-36081.66111489071,-22625.106289995467,-32594.87838684063
14279.769573184201,4994.027911904802,-24886.678145727892,-32456.498736917823,-36512.62509973349,-36024.3512421073,-22802.065050848134,-32627.64604421211
14222.772624823168,5028.583708832706,-24830.195287489332,-32393.22094836485,-36468.9050875789,-35971.39995949268,-22743.101148975034,-32562.177784702515
14305.742300241269,4987.322388568209,-24862.87353788299,-32458.04100728524,-36217.0009275676,-36012.25894835698,-22556.397027539853,-32514.903845179542
14368.12601901603,4940.920167078993,-24931.82866952761,-32527.063194163227,-36235.284654532035,-36081.348190468336,-22596.876036748414,-32576.72877034292
14291.34777681205,4981.399176287553,-24909.40986983894,-32470.60268766912,-36490.92155586738,-36036.957625980096,-22792.230283287798,-32626.03671861133
14213.206078196297,5029.768351288838,-24842.779319617668,-32396.88663445552,-36509.22763457628,-35969.05302632487,-22777.858111603036,-32567.162223716048
14286.87742792099,5006.075502166213,-24850.334209243563,-32439.891390787532,-36249.969750639175,-35995.31632605986,-22577.206501627745,-32507.840693931663
14371.568187662147,4951.894873606548,-24918.037643198688,-32515.507342279834,-36193.93392728972,-36056.29188493394,-22557.4252077848,-32545.324569383214
14305.272913607707,4964.903588879537,-24923.7820415237,-32493.893205391552,-36448.92262803586,-36057.923562279175,-22758.23327997128,-32619.420602252558
14215.53065961965,5019.508900583852,-24848.76958713169,-32406.296718871206,-36533.300463354644,-35980.43006425263,-22796.79003915668,-32588.932822815517
14269.800695157135,5013.60804004765,-24836.87845908147,-32420.579483578145,-36293.443893604745,-35977.054950839876,-22604.363871140944,-32516.334356824682
14362.806303835667,4956.342870753154,-24908.58285529409,-32511.70754572243,-36172.20803167916,-36060.00227451352,-22534.291152273556,-32536.115650667627
14321.07559693761,4953.8394753741595,-24931.64985557197,-32511.662842233523,-36403.10155190248,-36075.5143851655,-22726.471451100286,-32620.51583773087
14224.58311612405,5017.273726138321,-24858.961982603312,-32411.63878579602,-36544.923370471406,-35986.8450149113,-22811.206914330356,-32599.661660154066
14244.409113455906,5019.620659306128,-24835.313836969595,-32412.443448596416,-36337.834458092984,-35974.171575805136,-22638.56204015756,-32519.553008026247
14352.636260108502,4966.378804013587,-24897.384631321984,-32502.7221444514,-36160.67453154022,-36064.18205072666,-22522.757652134616,-32521.475258049402
14344.477873382315,4954.510027707819,-24927.9841694813,-32511.439324788967,-36341.52249592811,-36069.65822811821,-22673.184892318834,-32591.659735639067
14240.050523287122,5011.015237690835,-24866.338058273563,-32416.086782942628,-36536.40735583393,-35990.1977765796,-22802.9814723708,-32592.442046695003
14238.016514541689,5029.500130355374,-24825.054386264612,-32395.701991999387,-36381.82269118103,-35961.36402623225,-22666.278203282145,-32516.781391713786
14343.919079770933,4973.106679094634,-24881.470189269807,-32478.738722650854,-36171.13514794531,-36027.9051694757,-22525.998655080635,-32504.53263575228
14360.8393503236,4949.50323694983,-24934.30971316215,-32520.692946993466,-36306.76553330011,-36078.17424275568,-22654.34237174301,-32588.4410844375
14262.82695088708,5008.6683045230275,-24880.30789855813,-32435.46574538538,-36532.78637323217,-36013.667108257665,-22811.005748630258,-32610.368145748158
14224.426653912862,5035.0880664692,-24831.223467734275,-32387.58830876211,-36439.4007848979,-35970.684703670115,-22716.279055628667,-32545.570438572224
14322.707274282846,4985.623655989606,-24869.936689130867,-32464.85828934411,-36195.90088080178,-36020.864369972274,-22540.639047698864,-32509.025336387796
14372.238739995808,4950.26319626131,-24922.664454300935,-32514.68032773499,-36258.46341353219,-36065.411396671705,-22610.2870834216,-32567.721017327432
14282.228265074285,4994.296132838265,-24888.131009117486,-32443.37826292256,-36508.199454331334,-36008.39209656621,-22790.50919896474,-32600.77924737683
14222.504403889705,5036.272708925332,-24828.563610144094,-32389.555262274178,-36477.801081872116,-35960.78288087641,-22744.486957131263,-32551.5830578307
14310.614980532526,5004.890859710081,-24845.14860452993,-32439.98079776535,-36214.76575312206,-35998.53497726142,-22549.13271059188,-32502.878606662587
14380.285367999717,4960.008556843824,-24910.25923612824,-32510.165275355015,-36211.50239843159,-36061.27632394747,-22569.048114901558,-32551.20307817496
14308.938599698378,4998.498260795863,-24886.96871840581,-32454.263562472293,-36464.05475903211,-36032.10729743329,-22756.199271225843,-32603.304994500282
14231.780377838657,5052.678889355528,-24812.8056303031,-32367.762311430255,-36493.78257915766,-35940.129868999706,-22748.152643221933,-32547.515040339833
14296.376919314494,5030.394200133586,-24825.032034520154,-32410.677660784444,-36247.84633491592,-35974.68566592761,-22560.64385898636,-32493.71439143591
14391.058908827175,4984.84134493367,-24890.701459729848,-32491.300403034737,-36179.226479438126,-36065.03141701596,-22534.067634829004,-32537.747328012865
14333.458463365849,4999.6829032519945,-24893.495427786762,-32463.51718467679,-36422.18994166731,-36045.51834410648,-22725.622084810984,-32602.925014844543
14236.764816852192,5052.7459445888935,-24827.110746754497,-32377.820596435144,-36526.41612606241,-35956.267828496435,-22779.80271337065,-32575.991162775896
14276.863846405013,5038.440828137497,-24818.639435605935,-32394.964384432365,-36296.37197212839,-35962.23574426601,-22592.51744657963,-32497.044801359752
14372.171684762441,4972.8608099056255,-24888.86861668451,-32482.94085060845,-36167.22359266563,-36045.473640617565,-22514.778079364074,-32514.210941101428
14348.434132150905,4980.41569953152,-24901.810276724136,-32475.721237149388,-36375.72066494473,-36046.725338307064,-22684.897206413414,-32585.088322769207
14245.414941956395,5038.4855316264075,-24836.029092792167,-32392.237471608816,-36532.89813195445,-35975.06564558335,-22784.451876217354,-32578.7404273439
14267.096134078043,5046.845084052692,-24804.937816254835,-32383.40853254897,-36333.38646094638,-35961.29697099888,-22616.746737569185,-32496.843635659654
14372.708126629368,4988.596438002162,-24864.616973950502,-32463.494832932334,-36144.69303425468,-36013.667108257665,-22492.716907586684,-32488.28291753327
14364.907367814467,4973.12903083909,-24906.30297735965,-32487.7688274108,-36319.595434617455,-36046.814745284886,-22641.735987870215,-32567.609258605156
14262.15639855342,5036.697392069983,-24848.031979564665,-32401.8487217246,-36524.31506208361,-35984.028695109926,-22782.50727444974,-32581.489691911902
14250.309973992107,5055.986947534913,-24806.10010696651,-32372.7914539327,-36376.54767948958,-35959.39707272018,-22653.560060687076,-32506.99132764236
14338.308791912652,4985.400138545053,-24874.854072911035,-32474.894222604544,-36170.44224386719,-36029.98388171004,-22518.577875921474,-32506.85721717563
14363.141580002497,4962.333138267176,-24922.35152987856,-32514.881493435085,-36289.08530343596,-36069.65822811821,-22630.314246453556,-32581.154415745073
14267.744334667246,5016.513766826841,-24869.802578664134,-32419.998338222307,-36518.30244282514,-35992.52235800295,-22788.005803585747,-32593.53728217331
14232.897965061424,5047.716802086449,-24811.19630470232,-32371.271535309737,-36425.25213065769,-35941.649787622664,-22692.96618616178,-32525.498572051358
14327.401140618462,4996.710121239438,-24852.390569733452,-32448.65327461401,-36180.65699108326,-36003.36295406377,-22515.60509390892,-32494.67551644749
14380.46418195536,4962.579007456185,-24910.59451229507,-32503.169179340504,-36233.384756253334,-36061.45513790311,-22581.743905752173,-32552.49947935337
14288.978491899788,5004.399121332064,-24882.341907303562,-32441.567771621678,-36488.8651953775,-36016.17050363666,-22771.30905047763,-32597.605299664177
14227.600601625516,5045.325165429731,-24819.175877472866,-32373.238488821804,-36469.59799165702,-35952.222162750026,-22731.768814536194,-32543.692892037976
14314.526535812205,5015.0609034372455,-24835.894982325433,-32420.668890555968,-36209.80366585299,-35983.13462533172,-22537.84507964195,-32488.372324511092
14387.080298314131,4964.613016201618,-24903.88898895848,-32498.251795560336,-36199.81243608146,-36057.96826576808,-22558.699257218752,-32547.984426973395
14317.365207358029,4995.190202616478,-24888.801561451146,-32449.055606014208,-36453.683549604844,-36020.88672171673,-22748.018532755203,-32599.482846198425
14238.754122108714,5052.790648077804,-24817.678310594358,-32367.136462585506,-36493.98374485776,-35944.667273124134,-22753.0700270021,-32545.34692112767
14304.691768251869,5037.166778703544,-24820.8075548181,-32404.374468848047,-36244.4041662698,-35972.24932578198,-22560.42034154181,-32489.244042544848
14389.449583226393,4980.326292553698,-24892.042564397165,-32487.120626821594,-36163.557906574955,-36042.210285927096,-22519.248428255134,-32522.458734805434
14327.825823763113,4984.617827489117,-24902.972567435812,-32456.990475295843,-36410.29881361709,-36028.46396308708,-22715.809668995105,-32590.363334460657
14231.445101671829,5041.055982238768,-24833.749214857726,-32367.359980030058,-36518.39184980295,-35952.69154938359,-22776.785227869183,-32563.183613203004
14271.432372502373,5036.496226369885,-24819.689967595335,-32381.642744737,-36292.28160289307,-35957.69834014158,-22593.970309969227,-32492.86502514661
14373.26692024075,4977.577027985696,-24888.086305628578,-32474.246022015337,-36149.61041803484,-36036.28707364644,-22503.199875736223,-32506.119609608606
14351.36221067455,4980.259237320332,-24905.96770119282,-32463.025446298772,-36356.18524029079,-36042.88083826075,-22674.54834873061,-32580.483863411413
14243.738561122247,5033.56814784624,-24843.516927184693,-32375.004276633776,-36521.83401844907,-35958.726520386524,-22780.205044770843,-32568.190403960994
14246.599584412526,5032.9646507459465,-24820.58403737355,-32375.02662837823,-36343.44474595127,-35947.34948245877,-22627.609685374464,-32493.647336202546
14360.12409450103,4985.7130629674275,-24872.06010485412,-32453.056568271706,-36150.415080835235,-36021.89255021722,-22500.763535590595,-32488.864062889108
14368.46129518286,4981.756804198838,-24905.140686647974,-32466.199394011426,-36308.196044945245,-36032.956663722594,-22639.657275635873,-32560.50140386837
14261.731715408769,5036.384467647608,-24851.45179646633,-32386.448369794893,-36518.68242248087,-35969.36595074725,-22784.94361459537,-32576.415845920546
14233.993200539733,5049.370831176142,-24818.237104205742,-32364.16368057295,-36394.80905470956,-35940.80042133336,-22669.4521509948,-32511.461676533425
14342.689733825891,5010.054112679257,-24860.750122159734,-32439.109079731596,-36164.00494146406,-36002.42418079665,-22506.239712982144,-32488.037048344264
14370.182379505919,4981.935618154481,-24911.198009395364,-32482.247946530337,-36266.13006188036,-36044.154887694705,-22605.48145836371,-32551.471299108423
14276.237997560263,5034.529272857818,-24859.140796558953,-32397.624242022546,-36501.56098622811,-35984.47572999904,-22772.046658044655,-32575.141796486594
14228.852299315013,5063.318319716253,-24805.04957497711,-32345.768194886234,-36432.20352318329,-35923.72368856951,-22692.183875105846,-32510.254682332838
14315.107681168043,5012.825728991715,-24843.025188806678,-32420.64653881151,-36183.540366118,-35979.424235752136,-22510.12891651737,-32474.916574348998
14365.332050959118,4967.898722636548,-24912.337948362583,-32486.22655704338,-36230.255512029595,-36056.537754122946,-22569.69631549076,-32541.457717592446
14278.942558639355,5006.678999266505,-24884.934709660378,-32422.255864412295,-36487.233518032255,-36004.3464308198,-22762.435407928875,-32587.748180359387
14210.210944439286,5049.23672070941,-24821.92514204087,-32358.01695084774,-36477.21993651628,-35930.96565377303,-22729.086605201555,-32525.76679298482
14290.990148900766,5014.345647614676,-24842.62285740648,-32414.857436997587,-36219.30315724649,-35974.77507290543,-22536.07929182998,-32473.419007470493
14366.203768992875,4962.131972567078,-24913.50023907426,-32491.210996056918,-36203.65693612778,-36063.735015837556,-22551.434940270778,-32535.176877400507
14302.59070427307,4992.977379915403,-24897.809314466635,-32444.09351874513,-36456.56692463958,-36017.69042225962,-22748.465567644307,-32593.894910084597
14222.035017256143,5049.013203264857,-24825.94845604282,-32361.347360771582,-36509.65231772093,-35946.52246791392,-22765.005858541233,-32552.164203186538
14283.25644531923,5032.450560623474,-24823.467412408285,-32388.527082029235,-36258.306951321,-35970.41648273665,-22569.919832935317,-32493.91555713601
14379.123077288043,4982.650873977051,-24891.886102185978,-32472.815510370197,-36162.84265075238,-36046.47946911806,-22519.203724766223,-32516.893150436063
14331.200937175863,4997.648894506561,-24904.805410481145,-32458.733911363353,-36407.34838334899,-36042.94789349412,-22715.27322712818,-32592.084418783717
14239.20115699782,5064.3688517056535,-24830.0611770226,-32360.40858750446,-36522.88455043847,-35963.487441955505,-22778.79688487016,-32563.898869025576
14273.332270781073,5056.433982424019,-24814.10203148151,-32372.947916143887,-36300.08236170797,-35943.8849620682,-22595.065545447535,-32483.00790584182
14373.468085940849,4993.491470037874,-24882.006631136734,-32456.208164239906,-36154.41604309274,-36024.440649085125,-22507.78198334956,-32500.57637698369
14347.830635050612,4989.781080458293,-24913.343776863072,-32456.23051598436,-36366.06471134004,-36041.427974871156,-22685.2548343247,-32583.099017512683
14243.090360533042,5050.421363165541,-24851.988238333255,-32373.663171966455,-36544.498687326755,-35977.36787526225,-22798.578178713105,-32578.3380959437
14259.384782240963,5069.57680816374,-24809.788144801634,-32355.088872324097,-36357.36988274693,-35940.30868295535,-22635.52220291164,-32492.395638513048
14364.393277691994,5013.5409848142845,-24867.522700729693,-32439.891390787532,-36153.834897736895,-36000.03254413993,-22498.014271022592,-32485.04191458725
14362.426324179927,4987.5906095016735,-24917.098869931564,-32476.01180982731,-36316.600300860446,-36046.79239354043,-22645.267563494155,-32571.36435167365
14259.451837474327,5040.564243860751,-24859.565479703604,-32388.66119249597,-36531.44526856486,-35974.12687231623,-22792.163228054433,-32576.237031964905
14240.497558176228,5062.088973771211,-24807.329452911552,-32350.17148854393,-36396.30662158807,-35933.17847647411,-22667.32873527154,-32502.252757817838
14335.939507000388,5002.342760842176,-24861.644191937947,-32443.08769024464,-36168.29647639948,-36022.6525095287,-22509.592474650442,-32492.887376891063
14374.116286530054,4977.12999309659,-24911.55563730665,-32480.28099301827,-36262.73259672315,-36055.509573878,-22600.56407458354,-32552.29831365327
14275.54509348215,5023.733380285905,-24871.188386820366,-32406.922567715952,-36507.52890199768,-35987.806139922875,-22772.94072782287,-32579.098055255185
14230.662790615892,5065.441735439508,-24809.251702934707,-32349.255067021262,-36441.68066283234,-35941.20275273356,-22698.799991464617,-32518.033089403285
14324.40600686145,5024.180415175011,-24842.287581239652,-32412.398745107505,-36190.759979577066,-35996.72448596054,-22514.733375875163,-32478.783426139766
14386.432097724928,4982.919094910514,-24900.893855201466,-32472.368475481093,-36217.8502938569,-36059.48818439105,-22558.207518840733,-32535.176877400507
14295.929884425388,5010.389388846086,-24880.419657280407,-32418.165495176974,-36476.23645976025,-36011.94602393461,-22754.03115201368,-32590.31863097175
14229.656962115403,5058.691508614005,-24811.330415169054,-32344.11416579654,-36475.297686493126,-35945.382528946706,-22728.192535423343,-32530.30419710925
14303.529477540193,5027.3320111432095,-24827.557781643605,-32393.019782664753,-36224.26524451557,-35980.40771250817,-22536.123995318892,-32476.548251694236
14386.007414580276,4980.192182086967,-24894.59066326507,-32471.496757447334,-36188.14482547579,-36054.481393633054,-22536.012236596613,-32524.67155750651
14317.521669569216,5000.554621285752,-24891.707288230336,-32438.75145182031,-36442.32886342154,-36036.957625980096,-22733.221677925787,-32589.06693328225
14232.540337150138,5056.054002768279,-24820.181705973355,-32349.16566004344,-36508.60178573153,-35950.746947615975,-22759.26146021622,-32544.318740882725
14283.614073230514,5036.652688581073,-24823.109784497,-32383.07325638214,-36267.91820143678,-35965.32028500084,-22571.953841680748,-32481.867966874597
14369.377716705529,4972.346719783154,-24899.061012156133,-32473.933097592962,-36171.00103747857,-36043.104355705305,-22524.143460290845,-32516.602577758145
14323.288419638684,4980.147478598056,-24911.287416373187,-32457.303399718214,-36398.653554755874,-36044.66897781718,-22706.533695046153,-32586.764703603352
14226.259496958197,5040.385429905108,-24841.77349111718,-32362.152023571973,-36526.81845746261,-35960.98404657651,-22780.16034128193,-32563.809462047753
14260.167093296897,5040.050153738279,-24819.06411875059,-32363.40372126147,-36310.20770194622,-35950.903409827166,-22604.408574629855,-32490.361629767616
14368.327184716129,4985.646007734062,-24880.039677624667,-32453.101271760617,-36148.69399651218,-36027.927521220154,-22501.769364091084,-32502.29746130675
14346.17660596092,4976.235923318377,-24910.572160550615,-32463.360722465604,-36344.137650029385,-36049.608713341804,-22662.031371835634,-32576.25938370936
14235.334305207052,5024.359229130653,-24851.25063076623,-32378.64761097999,-36531.60173077604,-35977.658447940164,-22786.910568107436,-32580.997953533886
14245.81727335659,5047.314470686254,-24806.65890057789,-32350.752633899767,-36356.76638564663,-35938.72170909902,-22632.281199965622,-32492.99913561334
14348.456483895361,4990.809260703238,-24864.035828594668,-32438.438527397935,-36155.98066520461,-36020.46203857208,-22495.332061687954,-32488.886414633565
14368.438943438405,4979.052243119746,-24895.618843510016,-32460.790271853242,-36291.499291837135,-36048.15584995221,-22617.4396416473,-32559.786148045798
14264.97271835479,5032.919947257036,-24847.361427231008,-32380.994544147798,-36514.770867201194,-35986.688552700114,-22770.102056277046,-32574.11361624165
14236.00485754071,5055.986947534913,-24801.361537141984,-32345.00823557475,-36398.63120301142,-35939.6828341106,-22659.10329331199,-32502.833903173676
14329.457501108349,5000.264048607833,-24852.12234879999,-32440.360777421094,-36164.76490077554,-36012.25894835698,-22488.87240754037,-32485.220728542892
14363.387449191505,4963.428373745486,-24912.02502394021,-32488.28291753327,-36254.46245127469,-36056.381291911755,-22576.93828069428,-32555.986351488395
14274.516913237205,5009.8976504680695,-24871.613069965017,-32414.36569861957,-36501.58333797257,-36001.23953834052,-22752.667695601904,-32593.447875195492
14224.024322512667,5044.431095651519,-24811.688043080336,-32354.30656126816,-36448.96733152477,-35942.58856088979,-22685.031316880148,-32529.45483081995
14317.611076547037,5007.260144622343,-24840.8123661056,-32414.768030019764,-36193.79981682299,-35990.35423879078,-22497.701346600217,-32487.791179155254
14385.336862246617,4974.671301206506,-24902.50318080225,-32479.14105405105,-36208.52961641904,-36054.8613732888,-22531.161908049813,-32544.05051994926
14300.444936805361,5005.092025410178,-24883.63830848197,-32424.826315024653,-36467.36281721149,-36008.36974482176,-22721.151735919924,-32586.697648369987
14224.180784723852,5048.655575353572,-24821.142830984933,-32353.345436256583,-36487.76995989918,-35938.85581956575,-22712.076927671067,-32540.273075136316
14296.108698381031,5022.392275618587,-24833.548049157627,-32397.624242022546,-36235.12819232085,-35963.59920067778,-22519.091966043947,-32488.28291753327
14377.536103431716,4967.406984258531,-24901.49735230176,-32481.353876752124,-36185.10498822987,-36043.55139059441,-22508.005500794116,-32532.606426788145
14313.923038711911,4986.383615301087,-24898.815142967123,-32449.70380660341,-36434.103421461994,-36021.49021881702,-22702.800953722115,-32599.393439220603
14214.278961930153,5032.115284456645,-24835.224429991777,-32378.759369702268,-36521.99048066026,-35963.84506986679,-22747.72796007728,-32579.76860758884
14267.856093389522,5019.955935472958,-24825.791993831637,-32407.50371307179,-36280.0104951871,-35969.701226914076,-22557.693428718263,-32516.401412058047
14373.289271985206,4972.167905827511,-24887.773381206203,-32484.594879698147,-36160.87569724032,-36023.16659965117,-22487.93363427325,-32528.471354063913
14344.634335593502,4990.183411858489,-24895.06004989863,-32468.792196368242,-36379.855737668964,-36020.46203857208,-22668.043991094113,-32589.4916164269
14244.67733438937,5053.036517266813,-24828.63066537746,-32380.927488914433,-36519.97882365928,-35947.23772373649,-22754.969925280802,-32575.968811031442
14262.894006120445,5047.493284641896,-24815.465487893285,-32392.662154753467,-36321.070649751506,-35950.344616215785,-22591.243397145678,-32512.8251329452
14355.765504332247,4978.716966952917,-24891.21554985232,-32496.15073158154,-36162.55207807447,-36029.469791587566,-22495.041489010036,-32520.044746404263
14349.50701588476,4977.867600663615,-24914.103736174555,-32498.408257771523,-36343.914132584825,-36048.60288484131,-22649.67085715185,-32594.677221140533
14241.05635178761,5032.0258774788235,-24854.49163371225,-32407.257843882784,-36533.47927731029,-35977.054950839876,-22776.51700693572,-32601.36039273267
14234.328476706563,5037.434999637008,-24820.42757516236,-32393.913852442965,-36379.96749639124,-35940.129868999706,-22645.96046757227,-32533.880476222097
14344.544928615682,4983.455536777441,-24875.569328733603,-32482.918498863997,-36163.04381645248,-36012.88479720173,-22501.232922224157,-32519.843580704164
14359.431190422916,4958.60039694314,-24922.731509534304,-32522.592845272167,-36299.47886460768,-36059.01879775748,-22625.2404004622,-32594.677221140533
14261.798770642135,5017.363133116142,-24865.846319895547,-32436.225704696863,-36525.477352795286,-35992.72352370305,-22783.580158183595,-32613.810314394275
14234.328476706563,5048.499113142385,-24809.318758168076,-32387.58830876211,-36414.07625843004,-35928.7304793275,-22675.308308042087,-32534.998063444862
14326.663533051436,4993.200897359955,-24857.799691891636,-32466.489966689347,-36176.5889735924,-35996.478616771536,-22508.139611260845,-32509.807647443733
14363.923891058434,4953.995937585347,-24919.803431010656,-32522.48108654989,-36255.11065186389,-36059.532887879956,-22594.75262102516,-32582.182595990016
14273.511084736716,5001.314580597232,-24880.039677624667,-32445.836954812643,-36504.53376824067,-35998.51262551697,-22775.84645460206,-32619.93469237503
14219.643380599426,5041.860645039159,-24815.778412315656,-32382.6932767264,-36458.73504385174,-35934.36311893024,-22712.032224182156,-32552.767700286833
14306.345797341563,5000.755786985849,-24846.28854349715,-32452.74364384933,-36208.55196816349,-35991.516529502456,-22528.03266382607,-32513.00394690084
14377.08906854261,4953.772420140794,-24908.873427972012,-32517.586054514177,-36214.18460776623,-36051.10628022031,-22560.21917584171,-32566.759892315855
14292.130087867987,4977.375862285598,-24897.474038299806,-32472.48023420337,-36475.275334748665,-36022.71956476207,-22757.36156193752,-32621.141686575615
14219.352807921507,5033.299926912776,-24828.585961888548,-32396.774875733245,-36503.57264322909,-35961.76635763244,-22753.628820613485,-32574.918279042042
14290.945445411855,5012.043417935779,-24835.336188714053,-32434.41521339598,-36249.969750639175,-35972.51754671545,-22559.302754319044,-32511.81930444471
14373.490437685305,4958.756859154327,-24906.481791315295,-32514.523865523803,-36193.82216856744,-36048.759347052495,-22544.84117565646,-32552.946514242474
14320.270934137217,4977.353510541143,-24905.051279670155,-32482.985554097362,-36439.69135757582,-36032.59903581131,-22739.63662858446,-32623.242750554415
14228.695837103825,5033.746961801882,-24833.078662524065,-32397.22191062235,-36526.036146406674,-35958.726520386524,-22781.255576760243,-32592.17382576154
14266.53734046666,5013.764502258838,-24831.826964834567,-32419.439544610927,-36299.545919841046,-35963.889773355695,-22602.508676351154,-32523.956301683942
14375.300928986184,4967.228170302888,-24891.39436380796,-32493.4685222469,-36170.39754037828,-36034.67774804566,-22524.724605646683,-32537.590865801678
14340.186338446896,4970.268007548811,-24910.192180894875,-32489.176987311483,-36387.16475810585,-36046.30065516241,-22700.699889743315,-32612.916244616063
14233.456758672806,5026.214423920444,-24843.1145957845,-32400.30645135718,-36538.08373666808,-35963.956828589064,-22794.241940288775,-32599.035811309317
14246.95721232381,5026.102665198167,-24822.52863914116,-32406.922567715952,-36344.6293884074,-35958.45829945306,-22630.850688320483,-32531.019452931818
14354.714972342847,4970.782097671282,-24881.26902356971,-32493.80379841373,-36164.34021763089,-36030.96735846608,-22514.778079364074,-32533.500496566357
14346.60128910557,4956.767553897805,-24914.79664025267,-32505.851388675143,-36338.97439706021,-36056.22482970057,-22665.138264314923,-32603.506160200377
14241.235165743252,5015.105606926156,-24860.437197737363,-32422.837009768133,-36542.75525125924,-35982.50877648697,-22801.55096072566,-32606.68010791303
14235.87074707398,5039.491360126896,-24815.33137742655,-32392.729209986832,-36392.73034247522,-35950.72459587152,-22670.3015172841,-32536.272112878814
14342.488568125793,4989.445804291464,-24864.371104761496,-32466.57937366717,-36163.51320308605,-36012.39305882371,-22510.59830315093,-32516.96020566943
14357.352478188574,4958.086306820668,-24920.876314744513,-32513.18276085648,-36293.309783138015,-36068.98767578455,-22632.638827876908,-32594.520758929346
14258.244843273742,5013.071598180723,-24871.098979842543,-32428.827277282155,-36527.86898945201,-36000.36782030676,-22800.36631826953,-32615.285529528326
14224.29254344613,5050.3990114210865,-24815.756060571202,-32375.540718500702,-36434.818677284566,-35939.571075388325,-22705.416107823385,-32544.855182749652
14321.366169615529,5003.862679465137,-24857.419712235896,-32449.681454858957,-36188.77067432054,-35995.003401637485,-22528.03266382607,-32514.367403312615
14370.51765567275,4962.891931878559,-24918.439974598885,-32509.740592210364,-36251.31085530649,-36060.82928905836,-22599.558246083052,-32580.193290733492
14284.709308708825,5006.947220199969,-24880.129084602486,-32434.728137818354,-36502.1644833284,-36006.0004599095,-22785.010669828735,-32612.603320193688
14220.76096782219,5046.71097358596,-24820.025243762168,-32374.959573144864,-36475.901183593414,-35935.480706153,-22739.413111139907,-32550.979560730408
14300.333178083085,5007.908345211547,-24847.070854553087,-32430.682472071945,-36221.04659331401,-35983.91693638765,-22549.155062336336,-32504.8232084302
14365.667327125946,4953.50419920733,-24920.56339032214,-32511.975766655898,-36222.47710495914,-36063.08681524835,-22579.352269095456,-32562.043674235785
14292.957102412833,4986.294208323266,-24904.69365175887,-32467.071112045185,-36481.06443656259,-36031.146172421715,-22773.946556323357,-32619.487657485923
14218.212868954286,5046.375697419131,-24828.943589799834,-32377.30650631267,-36513.92150091189,-35955.15024127367,-22771.97960281129,-32573.107787741163
14283.859942419524,5025.7450372868825,-24833.257476479706,-32416.287948642726,-36259.692759477235,-35972.89752637118,-22578.458199317243,-32513.607444001133
14372.015222551254,4970.536228482274,-24900.089192401076,-32503.70562120743,-36181.75222656158,-36046.43476562915,-22545.69054194576,-32548.140889184582
14323.131957427498,4988.194106601966,-24904.44778256986,-32473.75428363732,-36423.24047365671,-36039.93040799265,-22733.221677925787,-32613.966776605463
14228.651133614914,5045.325165429731,-24835.58205790306,-32388.348268073594,-36526.63964350696,-35953.473860439524,-22782.753143638747,-32584.373066946635
14261.351735753029,5025.543871586785,-24828.362444443996,-32401.22287287985,-36301.33405939747,-35966.46022396806,-22604.006243229658,-32517.4742957919
14357.397181677483,4959.717984165905,-24899.016308667222,-32495.94956588144,-36170.554002589466,-36048.759347052495,-22529.686692915762,-32540.988330958884
14333.59257383258,4963.338966767665,-24914.21549489683,-32489.735780922867,-36375.92183064483,-36055.75544306701,-22699.06821239808,-32612.245692282402
14230.707494104803,5022.235813407399,-24846.512060941706,-32400.038230423717,-36537.435536078876,-35974.93153511662,-22799.114620580032,-32605.36135499017
14247.851282102023,5032.450560623474,-24810.57045585757,-32386.53777677271,-36341.14251627237,-35953.42915695062,-22630.358949942467,-32519.374194070602
14365.041478281199,4990.049301391757,-24859.788997148156,-32464.165385265995,-36145.76591798853,-36013.35418383529,-22500.49531465713,-32505.56081599722
14359.230024722818,4971.922036638503,-24906.861770971034,-32494.183778069473,-36317.226149705195,-36049.31814066388,-22648.396807717898,-32586.898814070086
14245.414941956395,5022.079351196212,-24861.443026237852,-32413.538684074723,-36534.5745127886,-35993.12585510324,-22800.925111880915,-32607.954157346983
14235.714284862792,5047.940319531002,-24815.063156493088,-32379.78754994721,-36393.44559829779,-35942.74502310098,-22670.346220773008,-32525.677386007
14344.74609431578,4996.754824728349,-24858.850223881036,-32454.889411317043,-36160.24984839557,-35997.90912841668,-22501.098811757423,-32493.535577480267
14369.80239985018,4960.679109177484,-24916.20480015335,-32504.018545629806,-36277.75296899712,-36054.52609712197,-22613.2375136897,-32572.81721506324
14263.832779387569,5003.952086442958,-24876.910433400924,-32438.527934375757,-36520.96230041532,-36002.04420114091,-22790.598605942563,-32610.614014937168
14217.251743942708,5033.255223423866,-24821.791031574136,-32392.013954164264,-36439.601950598,-35958.4359477086,-22706.936026446347,-32544.229333904903
14311.509050310739,4984.260199577832,-24859.520776214693,-32458.823318341176,-36191.58699412191,-36005.73223897603,-22525.32810274698,-32507.795990442755
14360.302908456673,4938.6402891445505,-24922.664454300935,-32519.754173726342,-36240.93964587923,-36072.31808570839,-22587.108324421446,-32575.25355520887
14274.226340559286,4981.354472798643,-24889.427410295895,-32455.42585318397,-36494.922518124884,-36015.58935828082,-22776.785227869183,-32622.952177876497
14214.636589841437,5028.7401710438935,-24823.892095552936,-32384.25789883827,-36478.40457897241,-35951.12692727172,-22740.150718706933,-32563.563592858744
14292.666529734914,4993.156193871045,-24846.310895241608,-32443.13239373355,-36223.751154393096,-35997.75266620549,-22545.84700415695,-32509.24885383235
14372.819885351646,4951.403135228531,-24906.392384337472,-32515.797914957755,-36202.20407273818,-36067.490108906044,-22556.955821151238,-32557.796842789277
14304.423547318405,4979.923961153503,-24891.72963997479,-32463.919516076985,-36455.02465427216,-36027.301672375404,-22748.10793973302,-32611.93276786003
14223.309066690097,5033.255223423866,-24820.964017029288,-32382.246241837292,-36506.45601826382,-35954.54674417338,-22759.149701493945,-32568.592735361188
14285.133991853476,5016.916098227036,-24820.91931354038,-32417.98668122133,-36256.675273975765,-35971.534069959416,-22564.153082865847,-32503.035068873774
14373.043402796198,4959.986205099369,-24894.45655279834,-32501.04576361725,-36175.76195904755,-36052.87206803227,-22528.703216159727,-32539.222543146916
14326.194146417874,4974.872466906603,-24901.273834857206,-32473.642524915045,-36414.63505204142,-36043.95372199461,-22721.487012086753,-32611.664546926564
14228.651133614914,5034.305755413265,-24832.989255546243,-32385.666058738956,-36530.21592261981,-35977.85961364026,-22781.70261164935,-32581.959078545464
14265.307994521618,5033.814017035248,-24815.040804748634,-32390.762256474765,-36305.08915246596,-35942.16387774514,-22593.94795822477,-32494.34024028066
14372.417553951449,4981.265065820821,-24878.430352023883,-32477.732894150366,-36158.77463326152,-36029.71566077658,-22506.195009493236,-32512.422801545003
14350.848120552078,4980.594513487162,-24902.659643013438,-32477.487024961356,-36363.62837119441,-36048.46877437458,-22677.901110398903,-32590.139817016105
14238.597659897527,5030.170682689033,-24845.48388069676,-32396.350192588594,-36535.51328605572,-35968.248363524486,-22788.2293210303,-32584.194252990994
14244.833796600557,5039.670174082538,-24815.063156493088,-32383.989677904807,-36358.66628392533,-35951.97629356102,-22640.886621580914,-32512.981595156387
14348.143559472986,4979.6110367311285,-24879.03384912418,-32480.90684186302,-36166.217764165136,-36036.264721901985,-22516.45446019822,-32514.725031223898
14355.7878560767,4966.445859246953,-24915.757765264247,-32501.649260717546,-36324.11048699743,-36062.17039372568,-22658.231575278234,-32594.565462418257
14256.412000228405,5030.058923966757,-24853.508156956217,-32403.346288603105,-36532.74166974326,-35987.00147712249,-22796.588873456585,-32600.35456423218
14242.710380877303,5054.243511467399,-24801.29448190862,-32364.677770695424,-36395.56901402104,-35942.78972658989,-22669.943889372815,-32522.302272594246
14342.779140803712,4995.279609594299,-24853.709322656316,-32453.458899671903,-36167.29064789899,-36012.50481754599,-22512.58760840745,-32507.5724729982
14376.284405742217,4969.440993003964,-24906.906474459945,-32500.57637698369,-36272.00857067211,-36071.222850230086,-22617.19377245829,-32580.953250044975
14271.745296924746,5009.852946979159,-24865.958078617823,-32416.667928298466,-36513.27330032269,-35994.109331859276,-22787.13408555199,-32602.679145655533
14230.752197593714,5047.962671275458,-24806.61419708898,-32371.18212833192,-36444.98872101173,-35944.48845916849,-22712.054575926613,-32541.658883292544
14324.942448728378,5007.863641722637,-24841.0135318057,-32432.64942558401,-36188.77067432054,-36003.608823252776,-22522.109451545413,-32505.225539830393
14373.825713852135,4958.578045198685,-24910.728622761802,-32502.319813051203,-36226.9474538502,-36068.65239961772,-22579.776952240107,-32560.836680035198
14296.354567570039,5005.315542854732,-24879.480884013283,-32430.41425113848,-36481.19854702932,-36003.00532615249,-22766.279907975186,-32595.995974063397
14229.969886537778,5052.656537611072,-24813.81145880359,-32361.906154382963,-36475.34238998203,-35939.72753759951,-22735.278038415676,-32544.20698216045
14300.422585060905,5015.463234837441,-24838.420729448884,-32420.803001022698,-36226.72393640565,-35975.155052561175,-22552.329010048987,-32496.173083325994
14374.295100485695,4962.735469667372,-24911.667396028926,-32504.443228774457,-36201.73468610462,-36057.6106378568,-22562.52140552061,-32550.5325258413
14310.324407854607,4992.440938048475,-24894.59066326507,-32456.588143895646,-36448.296779191114,-36032.30846313339,-22750.141948478456,-32610.5469597038
14226.058331258098,5047.537988130807,-24820.516982140183,-32370.623334720534,-36503.4161810179,-35954.8373168513,-22762.725980606792,-32560.92608701302
14274.11458183701,5019.039513950291,-24825.859049065002,-32409.045983439206,-36264.27486709057,-35971.26584902595,-22577.27355686111,-32496.35189728164
14371.456428939871,4963.607187701129,-24891.59552950806,-32496.15073158154,-36166.26246765405,-36046.8594487738,-22529.03849232656,-32528.00196743035
14329.010466219243,4973.7995831727485,-24902.145552890965,-32473.731931892868,-36397.22304311074,-36040.69036730413,-22713.999177694222,-32599.192273520504
14225.901869046911,5030.237737922399,-24835.850278836522,-32380.189881347407,-36525.410297561924,-35965.16382278965,-22787.80463788565,-32578.651020366076
14252.902776348923,5024.5156913418405,-24818.214752461285,-32392.7962652202,-36307.59254784496,-35969.7906338919,-22611.024690988626,-32505.38200204158
14354.156178731464,4964.925940623992,-24886.812256194622,-32481.242118029848,-36149.364548845835,-36037.47171610257,-22512.945236318737,-32515.417935302015
14329.949239486366,4954.442972474453,-24921.680977544904,-32492.306231535225,-36353.52538270061,-36059.868164046784,-22684.718392457773,-32596.39830546359
14227.086511503043,5013.920964470025,-24854.223412778785,-32398.786532734222,-36530.50649529773,-35973.7915961494,-22795.40423100045,-32585.6918198695
14236.340133707541,5029.522482099829,-24815.107859982,-32370.51157599826,-36352.6313129224,-35939.90635155515,-22639.456109935774,-32500.084638605673
14341.639201836491,4971.69851919395,-24873.714133943813,-32462.80192885422,-36151.01857793553,-36015.16467513617,-22505.83738158195,-32493.42381875799
14353.709143842358,4955.381745741576,-24912.181486151396,-32483.94667910894,-36299.07653320748,-36048.13349820775,-22638.182060501822,-32570.202060961972
14250.019401314188,5006.388426588586,-24858.157319802922,-32400.55232054619,-36518.86123643652,-35985.906241644174,-22790.196274542366,-32586.183558247514
14224.113729490487,5030.461255366952,-24810.548104113117,-32364.83423290661,-36401.35811583497,-35947.86357258124,-22679.73395344424,-32515.68615623548
14330.84330926458,4993.357359571142,-24848.1660900314,-32436.404518652504,-36156.718272771635,-36001.10542787379,-22503.848076325427,-32486.159501810016
14363.70037361388,4957.5945684426515,-24908.22522738281,-32491.166292568007,-36245.901733148305,-36057.56593436789,-22594.730269280706,-32558.467395122934
14260.748238652735,4995.994865416868,-24876.53045374518,-32419.953634733396,-36500.89043389445,-36016.528131547944,-22781.680259904893,-32593.224357750936
14209.629799083448,5033.23287167941,-24820.38287167345,-32366.801186418677,-36448.92262803586,-35959.10650004226,-22721.59877080903,-32538.5296390688
14303.708291495836,4997.5147840398295,-24845.10390104102,-32421.630015567545,-36188.234232453615,-35986.822663166844,-22525.618675424896,-32492.261528046314
14358.939452044899,4947.7374491378605,-24912.44970708486,-32494.072019347197,-36210.943604820204,-36057.34241692334,-22566.097684633456,-32550.309008396747
14284.843419175557,4991.949199670458,-24882.58777649257,-32431.308320916694,-36466.625209644466,-36015.29878560291,-22758.188576482367,-32592.665564139555
14207.9534182493,5036.205653691966,-24819.48880189524,-32355.98294210231,-36478.27046850568,-35941.91800855613,-22740.93302976287,-32538.976673957906
14285.379861042484,5016.312601126743,-24828.228333977266,-32402.16164614697,-36218.05145955699,-35970.50588971447,-22542.047207599546,-32483.38788549756
14372.484609184816,4969.50804823733,-24896.31174758813,-32480.973897096384,-36173.32561890192,-36046.524172606965,-22531.206611538724,-32522.503438294345
14299.103832138042,4981.086251865179,-24901.050317412653,-32449.145012992027,-36430.124810948946,-36034.18600966764,-22735.76977679369,-32592.151474017082
14210.948552006312,5035.915081014047,-24832.54222065714,-32362.73316892781,-36510.54638749914,-35954.68085464011,-22778.260443003233,-32559.272057923325
14265.307994521618,5024.47098785293,-24825.34495894253,-32388.571785518146,-36266.48768979165,-35971.46701472605,-22586.862455232436,-32489.176987311483
14354.64791710948,4959.963853354914,-24897.719907488812,-32477.8670046171,-36161.12156642933,-36043.104355705305,-22526.17746903628,-32515.44028704647
14320.270934137217,4973.173734328,-24906.057108170644,-32461.259658486804,-36386.18128134981,-36046.56887609588,-22707.897151457924,-32589.558671660267
14224.001970768211,5034.596328091184,-24836.49847942573,-32370.153948086972,-36520.89524518195,-35963.42038672214,-22786.17296054041,-32570.939668528998
14256.322593250585,5040.027801993823,-24807.28474942264,-32367.06940735214,-36307.078457722484,-35954.233819751,-22610.2870834216,-32493.155597824527
14363.879187569522,4986.3612635566315,-24868.461473996816,-32454.397672939027,-36138.456897551645,-36026.92169271966,-22504.898608314827,-32500.017583372308
14354.536158387204,4983.8355164331815,-24898.256349355743,-32463.00309455432,-36325.540998642566,-36042.56791383838,-22665.831168393037,-32579.478034910924
14248.968869324788,5040.89952002758,-24837.370197459484,-32374.244317322293,-36512.44628577784,-35968.56128794685,-22792.006765843245,-32583.009610534864
14246.979564068266,5051.136618988111,-24800.53452259714,-32354.463023479348,-36343.46709769572,-35939.90635155515,-22643.568830915552,-32506.43253403098
14350.378733918516,4992.887972937581,-24856.950325602334,-32438.013844253284,-36132.53368527099,-36011.923672190154,-22495.667337854786,-32490.071057089695
14364.929719558922,4970.089193593168,-24901.45264881285,-32472.65904815901,-36270.53335553806,-36061.4104344142,-22625.57567662903,-32566.290505682293
14258.87069211849,5020.201804661966,-24854.96102034581,-32399.144160645505,-36499.66108794941,-35994.82458768184,-22786.888216362982,-32588.664601882054
14228.740540592737,5050.957805032469,-24806.703604066803,-32358.374578759027,-36393.75852272016,-35938.095860254274,-22678.839883666027,-32513.026298645294
14323.042550449676,4996.419548561519,-24853.575212189582,-32433.47644012886,-36159.80281350647,-36008.705020988586,-22514.152230519325,-32493.446170502448
14362.962766046854,4961.372013255598,-24912.94144546288,-32487.500606477333,-36238.45860224469,-36063.77971932646,-22598.46301060474,-32558.802671289766
14272.72877368078,5011.216403390933,-24874.31763104411,-32413.158704418984,-36487.4123319879,-36005.70988723158,-22776.628765657995,-32593.760799617867
14225.141909735432,5059.473819669941,-24807.57532210056,-32349.098604810075,-36437.41147964138,-35945.11430801324,-22715.228523639267,-32533.232275632894
14305.675245007902,5009.7188365124275,-24839.40420620492,-32416.958500976387,-36183.09333122889,-35994.82458768184,-22531.541887705553,-32488.059400088718
14366.047306781687,4956.40992598652,-24908.426393082907,-32486.628888443578,-36192.10108424439,-36057.67769309017,-22562.052018887047,-32541.703586781456
14289.73845121127,4994.676112494006,-24889.047430640156,-32433.43173663995,-36449.906104791895,-36028.66512878718,-22756.98158228178,-32602.723849144444
14216.24591544222,5044.475799140429,-24814.705528581802,-32347.757500142754,-36468.59216315653,-35947.57299990332,-22742.229430941275,-32537.412051846037
14292.39830880145,5023.800435519271,-24817.834772805545,-32385.062561638664,-36207.41202919627,-35967.55545944637,-22537.621562197397,-32471.452053958426
14370.182379505919,4963.204856300933,-24895.730602232292,-32475.318905749195,-36163.267333897034,-36051.55331510941,-22526.624503925384,-32524.515095295323
14306.323445597107,4976.504144251841,-24895.350622576552,-32444.965236778884,-36412.288118873614,-36044.82544002836,-22724.72801503277,-32594.386648462612
14219.039883499132,5036.920909514536,-24818.304159439107,-32352.853697878567,-36492.195605301335,-35958.860630853254,-22758.322686949097,-32554.265267165338
14273.287567292164,5032.450560623474,-24803.037917976133,-32365.504785240268,-36249.50036400561,-35963.86742161124,-22563.661344487828,-32482.650277930534
14361.711068357357,4962.958987111925,-24879.726753202292,-32463.18190850996,-36131.05847013694,-36043.171410938674,-22502.328157702468,-32510.96993815541
14329.83748076409,4966.244693546855,-24896.93759643288,-32451.022559526275,-36355.09000481248,-36042.16558243818,-22683.421991279363,-32575.83470056471
14228.561726637094,5027.264955909844,-24831.53639215665,-32363.247259050284,-36506.83599791956,-35968.18130829112,-22773.186597011878,-32559.696741067975
14258.423657229383,5037.725572314927,-24798.925196996355,-32363.582535217112,-36296.64019306185,-35957.29600874138,-22592.1821704128,-32475.98945808285
14361.97928929082,4976.817068674215,-24865.64515419545,-32451.670760115478,-36125.247016578556,-36018.96447169357,-22485.25142493861,-32483.253775030826
14345.0366669937,4956.275815519788,-24907.64408202697,-32473.843690615144,-36315.84034154897,-36050.6592453312,-22651.57075543055,-32568.592735361188
14238.620011641982,5015.37382785962,-24847.115558041998,-32378.446445279893,-36514.18972184536,-35978.66427644066,-22783.289585505678,-32570.805558062264
14241.34692446553,5044.632261351617,-24797.785258029136,-32344.382386730005,-36354.79943213456,-35936.24066546448,-22643.94881057129,-32490.406333256524
14348.098855984075,4988.03764439078,-24846.668523152894,-32427.732041803843,-36130.05264163645,-36003.117084874764,-22490.079401740957,-32476.324734249683
14359.40883867846,4956.812257386716,-24898.9269016894,-32469.127472535074,-36257.12230886487,-36053.22969594356,-22609.258903176655,-32558.042711978283
14254.802674627625,5010.881127224103,-24853.865784867503,-32390.09170414111,-36496.196567558836,-35990.60010797979,-22780.696783148862,-32582.62963087912
14222.727921334259,5045.794552063293,-24799.215769674276,-32346.394043730983,-36398.43003731132,-35941.76154634495,-22684.092543613024,-32509.360612554625
14318.9298294699,4994.251429349355,-24845.506232441217,-32430.280140671748,-36155.377168104314,-36008.36974482176,-22507.960797305204,-32483.030257586273
14362.51573115775,4955.337042252665,-24911.175657650907,-32489.28874603376,-36233.13888706433,-36077.45898693311,-22595.84785650347,-32563.071854480728
14271.365317269006,5000.286400352287,-24876.061067111623,-32423.105230701596,-36489.692209922345,-36024.284186873934,-22781.590852927075,-32607.529474202332
14214.390720652429,5046.822732308237,-24808.514095367682,-32358.240468292293,-36450.464898403276,-35952.64684589468,-22716.033186439658,-32540.474240836415
14301.204896116842,5015.03855169279,-24833.43629043535,-32418.009032965787,-36191.7434563331,-35998.19970109459,-22519.65075965533,-32490.62985070108
14375.144466774997,4971.922036638503,-24900.133895889987,-32489.735780922867,-36191.7434563331,-36067.355998439314,-22544.84117565646,-32550.86780200813
14304.758823485236,5006.008446932847,-24880.553767747137,-32433.8564197846,-36449.481421647244,-36028.486314831534,-22738.966076250803,-32608.22237828045
14228.405264425906,5057.775087091338,-24810.503400624206,-32356.318218269138,-36481.779692385164,-35951.90923832765,-22732.774643036682,-32555.67342706602
14292.890047179468,5033.009354234857,-24818.99706351722,-32399.166512389962,-36224.242892771115,-35977.524337473435,-22531.787756894562,-32494.317888536203
14366.136713759508,4964.165981312512,-24901.854980213044,-32489.780484411778,-36161.90387748526,-36058.6611698462,-22508.005500794116,-32543.15645017105
14313.274838122707,4980.974493142902,-24899.664509256425,-32457.303399718214,-36408.77889499413,-36043.394928383226,-22701.750421732715,-32606.724811401942
14229.589906882038,5046.107476485668,-24821.567514129583,-32361.772043916233,-36502.14213158395,-35954.323226728826,-22745.984524009767,-32569.06212199475
14272.72877368078,5035.535101358307,-24809.206999445796,-32381.530986014724,-36267.024131658574,-35956.3348837298,-22556.732303706685,-32493.71439143591
14373.848065596589,4979.119298353112,-24878.58681423507,-32471.586164425156,-36132.82425794891,-36035.772983523966,-22477.62948007935,-32514.121534123606
14337.41472213444,4973.397251772553,-24905.341852348072,-32476.52589994978,-36357.10166181346,-36051.39685289822,-22665.0488573371,-32599.818122365254
14236.273078474174,5035.155121702566,-24833.302179968618,-32384.593175005102,-36514.97203290129,-35963.55449718887,-22763.061256773624,-32585.6918198695
14253.550976938126,5043.358211917664,-24802.881455764946,-32377.328858057128,-36319.103696239436,-35959.352369231274,-22597.367775126433,-32512.556912011736
14355.69844909888,4979.231057075388,-24867.72386642979,-32469.61921091309,-36133.830086449394,-36022.29488161742,-22479.752895802605,-32520.58118827119
14353.239757208796,4966.199990057944,-24904.246616869765,-32492.350935024137,-36307.16786470031,-36049.049919730416,-22631.878868565425,-32591.74914261689
14250.377029225474,5023.845139008181,-24845.215659763297,-32399.591195534613,-36511.216939832804,-35973.27750602693,-22769.74442836576,-32586.5411861588
14234.239069728741,5036.250357180877,-24806.61419708898,-32380.54750925869,-36366.645856695875,-35940.86747656673,-22641.91480182586,-32516.222598102406
14330.396274375473,4977.152344841045,-24863.566441961106,-32470.7144463914,-36142.72608074261,-36008.23563435503,-22491.44285815273,-32503.95149039644
14350.043457751688,4947.536283437763,-24921.725681033815,-32515.417935302015,-36265.75008222462,-36068.764158339996,-22611.114097966445,-32585.445950680492
14246.197253012331,4997.470080550919,-24878.20683457933,-32441.32190243267,-36509.182931087365,-36004.21232035307,-22783.155475038944,-32614.07853532774
14215.508307875194,5042.352383417176,-24810.637511090936,-32383.162663359963,-36415.55147356409,-35932.865552051735,-22691.692136727826,-32534.171048900018
14307.083404908588,4991.166888614523,-24850.937706343855,-32460.90203057552,-36161.34508387388,-35991.583584735825,-22510.151268261823,-32502.632737473577
14351.921004285932,4947.7374491378605,-24918.752899021256,-32527.085545907685,-36219.21375026867,-36056.9624372676,-22586.12484766541,-32581.02030527834
14274.092230092554,5001.605153275151,-24875.34581128905,-32449.52499264777,-36464.74766311022,-36006.55925352088,-22766.525777164195,-32621.208741808983
14213.161374707386,5043.469970639941,-24810.659862835393,-32386.135445372518,-36441.233627943235,-35944.71197661304,-22717.396642851432,-32553.661770065046
14291.839515190068,5004.689694009983,-24838.264267237697,-32445.054643756706,-36192.21284296666,-35980.318305530345,-22533.88882087336,-32509.29355732126
14363.02982128022,4954.9570625969245,-24906.481791315295,-32520.648243504555,-36174.890241013796,-36054.59315235534,-22550.94320189276,-32561.954267257963
14293.404137301939,4986.495374023363,-24893.54013127567,-32472.6143446701,-36436.897389518905,-36030.6544340437,-22752.175957223888,-32624.516799988367
14216.625895097959,5043.872302040137,-24819.935836784345,-32385.330782572128,-36483.970163341786,-35953.80913660635,-22760.244936972256,-32581.959078545464
14276.640328960459,5020.738246528894,-24819.600560617517,-32419.238378910828,-36230.92606436325,-35967.15312804617,-22562.633164242885,-32510.85817943313
14365.51086491476,4964.300091779243,-24891.79669520816,-32504.867911919107,-36152.382034347305,-36044.84779177282,-22531.854812127927,-32545.905714739052
14320.159175414941,4986.920057168014,-24894.16598012042,-32473.08373130366,-36394.94316517629,-36037.62817831375,-22723.476317343273,-32614.7490876614
14225.454834157807,5050.309604443265,-24821.969845529777,-32380.83808193661,-36503.50558799572,-35955.15024127367,-22781.65790816044,-32584.618936135645
14268.34783176754,5051.941281788502,-24803.37319414296,-32391.07518089714,-36275.45073931822,-35963.66625591114,-22596.406650114855,-32511.081696877685
14367.388411449005,4993.960856671436,-24873.73648568827,-32477.218804027892,-36134.07595563841,-36024.32889036285,-22509.726585117172,-32526.370290085113
14334.508995355249,4985.198972844955,-24905.900645959457,-32485.645411687543,-36351.24550476617,-36043.238466172035,-22689.54636926012,-32605.562520690266
14236.00485754071,5047.672098597539,-24836.453775936818,-32391.209291363873,-36514.010907889715,-35965.67791291212,-22790.75506815375,-32594.856035096174
14248.745351880236,5054.310566700765,-24803.686118565336,-32380.055770880674,-36323.05995500803,-35946.79068884739,-22626.559153385064,-32516.312005080224
14343.762617559745,4984.975455400402,-24874.831721166578,-32481.08565581866,-36135.729984728096,-36031.36968986627,-22503.445744925233,-32522.61519701662
14344.232004193307,4968.211647058922,-24915.02015769722,-32503.81737992971,-36299.590623329954,-36061.11986173628,-22650.654333907885,-32601.60626192168
14246.197253012331,5032.137636201101,-24847.40613071992,-32405.760277004276,-36504.98080312977,-35977.16670956215,-22789.056335575144,-32604.914320101063
14226.930049291856,5054.534084145318,-24799.685156307838,-32370.332762042617,-36363.80718515005,-35933.983139274496,-22658.320982256053,-32517.071964391707
14327.959934229844,5001.068711408224,-24851.04946506613,-32453.302437460716,-36133.04777539346,-35997.998535394494,-22499.489486156643,-32495.658993203524
14361.666364868446,4972.570237227707,-24900.491523801273,-32493.021487357797,-36236.35753826589,-36048.87110577478,-22598.597121071474,-32569.419749906036
14259.384782240963,5014.256240636854,-24859.766645403703,-32420.333614389136,-36483.45607321931,-35993.662296970164,-22770.37027721051,-32604.511988700866
14219.308104432595,5050.421363165541,-24794.18662717183,-32366.130634085017,-36402.81097922456,-35937.67117710962,-22687.601767492506,-32534.126345411107
14309.07271016511,4999.817013718726,-24835.716168369792,-32442.908876289,-36156.89708672727,-35999.74197146201,-22509.436012439255,-32498.00592637133
14359.855873567567,4955.225283530389,-24899.508047045238,-32504.91261540802,-36200.5947471374,-36057.18595471215,-22567.41643755632,-32563.29537192528
14270.985337613267,4996.5760107727065,-24869.310840286118,-32444.76407107879,-36454.28704670513,-36001.999497651996,-22753.673524102393,-32601.60626192168
14212.133194462443,5048.0520782532785,-24796.533560339638,-32363.850756150576,-36445.569866367565,-35936.30772069785,-22724.482145843762,-32550.711339796944
14292.912398923923,5016.379656360109,-24813.163258214387,-32419.014861466276,-36181.34989516138,-35974.46214848306,-22529.79845163804,-32496.016621114806
14364.37092594754,4959.427411487986,-24889.650927740448,-32496.888339148565,-36160.22749665112,-36056.537754122946,-22540.30377153203,-32538.194362901973
14299.662625749424,4988.149403113056,-24877.40217177894,-32446.909838546497,-36419.7983050106,-36015.99168968102,-22736.127404704977,-32596.934747330517
14212.088490973532,5043.358211917664,-24810.682214579847,-32370.10924459806,-36479.36570398399,-35946.567171402836,-22759.820253827605,-32562.28954342479
14267.699631178337,5026.057961709257,-24813.833810548047,-32406.02849793774,-36236.335186521435,-35970.55059320338,-22571.395048069364,-32501.984536884374
14365.51086491476,4977.934655896981,-24882.341907303562,-32491.85919664612,-36140.781478975,-36047.932332507655,-22524.3669777354,-32535.892133223075
14323.400178360962,4993.022083404313,-24888.24276783976,-32467.294629489737,-36373.709007943755,-36033.00136721151,-22710.86993347048,-32601.18157877703
14229.455796415306,5055.696374856994,-24814.72788032626,-32370.444520764893,-36491.927384367875,-35950.72459587152,-22773.521873178706,-32565.239973692893
14262.40226774243,5050.130790487622,-24795.259510905686,-32377.619430735045,-36269.125195637374,-35950.6351888937,-22593.52327508012,-32490.09340883415
14363.365097447051,4986.405967045542,-24864.59462220605,-32473.217841770394,-36115.23343506258,-36025.04414618542,-22496.874332055373,-32504.644394474555
14339.873414024523,4978.158173341533,-24894.277738842695,-32478.29168776175,-36322.29999569654,-36045.51834410648,-22672.2014155628,-32587.25644198137
14235.021380784678,5034.752790302371,-24831.022302034176,-32387.476550039835,-36504.60082347403,-35967.13077630172,-22791.93971060988,-32587.92699431503
14239.24586048673,5044.7663718183485,-24800.311005152584,-32378.088817368607,-36329.60901613343,-35945.49428766898,-22639.277295980133,-32512.40044980055
14351.809245563656,4997.201859617456,-24849.14956678743,-32456.789309595744,-36117.66977520821,-36007.654488999186,-22492.87336979787,-32495.189606569962
14364.75090560328,4982.069728621213,-24887.169884105908,-32479.85630987362,-36263.49255603463,-36038.924579492166,-22623.608723116962,-32567.408092905058
14256.479055461772,5033.031705979312,-24841.281752739163,-32394.427942565435,-36488.52991921067,-35975.46797698355,-22781.21087327133,-32587.5917181482
14236.250726729719,5060.099668514689,-24791.347955626006,-32356.5864392026,-36359.649760681365,-35930.02688050591,-22657.49396771121,-32509.62883348809
14335.64893432247,5006.746054499871,-24841.527621928173,-32436.046890741218,-36122.56480724392,-35995.83041618233,-22489.83353255195,-32486.405370999026
14375.189170263908,4982.382653043586,-24895.484733043282,-32480.593917440645,-36218.81141886848,-36042.92554174966,-22589.701126778262,-32555.516964854836
14278.406116772429,5027.019086720835,-24855.38570349046,-32406.296718871206,-36464.68060787685,-35984.00634336547,-22766.16814925291,-32582.540223901302
14220.313932933084,5051.5165986438515,-24805.161333699387,-32359.06748283714,-36406.990755437706,-35933.983139274496,-22692.49679952822,-32517.317833580713
14312.78309974469,5007.70717951145,-24837.973694559776,-32428.246131926317,-36153.09729016987,-35989.03548586792,-22503.78102109206,-32480.929193607473
14364.147408502986,4951.447838717441,-24905.028927925698,-32498.788237427267,-36184.322677173936,-36051.26274243149,-22552.820748427006,-32538.149659413062
14273.131105080976,4980.482754764886,-24884.890006171467,-32444.160573978494,-36451.582485626044,-36019.478561816046,-22751.483053145774,-32591.279755983327
14215.932991019845,5046.487456141407,-24800.66863306387,-32357.659322936455,-36447.87209604646,-35940.465145166534,-22725.0632911996,-32538.216714646427
14280.708346451325,5006.299019610765,-24824.607351375504,-32412.42109685196,-36194.15744473427,-35967.13077630172,-22534.60407669593,-32485.667763432
14352.457446152861,4946.418696214998,-24901.296186601663,-32501.224577572895,-36167.000075221076,-36057.18595471215,-22543.477719244685,-32538.82021174672
14297.047471648155,4977.644083219062,-24886.745200961257,-32458.353931707614,-36407.66130777136,-36028.642777042725,-22725.77854702217,-32590.765665860854
14216.827060798058,5040.050153738279,-24812.24683669172,-32373.350247544084,-36474.73889288174,-35946.20954349155,-22748.197346710844,-32547.29152289528
14264.704497421324,5020.604136062162,-24815.107859982,-32404.46387582587,-36236.51400047708,-35970.14826180318,-22562.722571220707,-32490.875719890086
14355.921966543434,4957.371050998098,-24888.533340517683,-32492.596804213146,-36135.97585391711,-36041.56208533789,-22512.49820142963,-32526.683214507488
14323.02019870522,4975.922998896003,-24888.533340517683,-32471.47440570288,-36359.180374047806,-36033.76132652299,-22691.915654172382,-32591.68208738352
14221.453871900305,5032.003525734369,-24821.92514204087,-32385.576651761134,-36494.34137276904,-35958.45829945306,-22773.678335389894,-32568.48097663891
14255.9649653393,5035.199825191477,-24793.47137134926,-32382.40270404848,-36279.3622945979,-35944.62256963523,-22596.719574537226,-32488.260565788816
14360.571129390137,4978.582856486185,-24858.403188991928,-32469.462748701902,-36112.35006002785,-36028.70983227609,-22494.952082032214,-32498.072981604695
14342.153291958964,4967.384632514076,-24894.233035353787,-32486.67359193249,-36312.733449069674,-36056.09071923384,-22666.658182937885,-32587.301145470283
14239.20115699782,5029.477778610919,-24825.18849673134,-32394.383239076527,-36497.62707920397,-35968.56128794685,-22786.75410589625,-32585.892985569597
14239.804654098112,5043.358211917664,-24786.609385801483,-32370.77979693172,-36326.43506842078,-35943.10265101226,-22638.986723302212,-32503.90678690753
14346.713047827847,4987.545906012762,-24844.813328363103,-32460.969085808887,-36118.49678975306,-36020.64085252772,-22495.712041343697,-32497.245967059847
14359.677059611924,4967.384632514076,-24888.041602139667,-32488.729952422378,-36258.910448421295,-36065.478451905066,-22621.32884518252,-32572.705456340966
14251.24874725923,5011.909307469047,-24838.688950382348,-32409.291852628216,-36485.333619753554,-35986.50973874447,-22779.266271503722,-32591.50327342788
14227.488842903238,5041.413610150053,-24784.150693911397,-32359.559221215157,-36368.36694101893,-35934.743098585976,-22667.351087016,-32514.412106801527
14327.289381896184,4987.322388568209,-24829.39062468894,-32435.063413985186,-36125.69405146767,-35999.02671563944,-22496.807276822004,-32487.14297856605
14363.722725358335,4950.777286383783,-24890.768514963213,-32490.853368145632,-36212.32941297643,-36060.89634429173,-22588.98587095569,-32563.630648092112
14270.605357957525,4997.693597995472,-24850.088340054554,-32418.880750999542,-36460.76905259718,-35999.18317785063,-22770.526739421697,-32593.246709495394
14226.684180102848,5041.994755505891,-24782.921347966356,-32352.853697878567,-36403.5932902805,-35934.09489799677,-22702.242160110734,-32520.38002257109
14307.552791542148,4993.670283993517,-24824.562647886592,-32428.156724948494,-36151.01857793553,-35994.712828959564,-22514.01812005259,-32482.650277930534
14371.434077195416,4952.051335817735,-24889.29329982916,-32497.849464160143,-36166.10600544286,-36055.01783549999,-22550.540870492565,-32543.424671104513
14290.54311401166,4990.049301391757,-24868.237956552264,-32434.437565140437,-36426.615587069464,-36007.36391632127,-22746.92329727689,-32592.799674606285
14217.028226498154,5042.508845628363,-24797.651147562403,-32355.200631046373,-36445.12283147846,-35932.88790379619,-22732.819346525594,-32535.847429734164
14286.698613965347,5014.2338888924,-24811.643339591425,-32404.530931059235,-36184.032104496015,-35962.61572392174,-22529.954913849226,-32470.893260347042
14360.8393503236,4955.247635274844,-24887.661622483927,-32482.985554097362,-36133.58421726039,-36039.23750391454,-22517.12501253188,-32517.4742957919
14298.9250181824,4977.599379730151,-24885.493503271762,-32453.682417116455,-36385.644839482884,-36027.45813458659,-22712.30044511562,-32590.385686205114
14213.742520063224,5040.005450249369,-24811.37511865796,-32361.570878216135,-36467.02754104466,-35948.55647665936,-22744.755178064726,-32551.270133408325
14262.961061353812,5024.158063430556,-24807.128287211453,-32391.812788464165,-36223.058250314985,-35965.76731988994,-22551.36788503741,-32482.650277930534
14362.26986196874,4969.619806959607,-24871.903642642934,-32471.317943491693,-36106.29273728046,-36033.13547767824,-22487.173674961767,-32506.231368330882
14329.83748076409,4980.08042336469,-24881.470189269807,-32451.737815348843,-36328.67024286631,-36013.532997790935,-22665.182967803834,-32562.669523080534
14229.120520248476,5040.385429905108,-24816.806592560602,-32367.091759096595,-36475.141224281935,-35947.036558036394,-22754.94757353635,-32547.5820955732
14248.991221069244,5038.6643455820495,-24796.265339406174,-32373.283192310715,-36275.74131199614,-35950.67989238261,-22591.46691459023,-32480.996248840842
14350.021106007232,4975.9677023849135,-24864.68402918387,-32466.244097500337,-36112.95355712814,-36021.66903277267,-22492.22516920867,-32495.748400181343
14343.919079770933,4970.3350627821765,-24893.718945231314,-32472.90491734802,-36294.025038960586,-36046.814745284886,-22647.61449666196,-32573.666581352543
14235.356656951506,5023.733380285905,-24834.86680208049,-32382.64857323749,-36484.998343586725,-35963.889773355695,-22770.213814999322,-32568.749197572375
14230.416921426884,5037.502054870374,-24796.734726039736,-32360.520346226735,-36327.59735913245,-35938.58759863229,-22635.499851167187,-32494.317888536203
14333.369056388028,4978.716966952917,-24853.664619167404,-32449.07795775866,-36110.785437915976,-36008.21328261057,-22488.514779629088,-32478.85048137313
14353.46327465335,4960.232074288378,-24901.45264881285,-32481.599745941134,-36249.70152970571,-36050.14515520873,-22617.104365480467,-32556.858069522154
14261.307032264118,5023.509862841352,-24842.533450428662,-32387.320087828648,-36478.18106152786,-35979.87127064124,-22775.757047624236,-32576.751122087375
14232.048598772122,5055.316395201254,-24787.1011241795,-32340.940218083888,-36372.18908932079,-35927.76935431592,-22670.793255662116,-32500.710487450422
14328.719893541323,5006.254316121855,-24830.128232255964,-32416.332652131638,-36126.364603801325,-35987.940250389605,-22492.381631419856,-32466.04293180024
14366.471989926338,4961.975510355891,-24893.2272068533,-32474.42483597098,-36200.97472679314,-36052.04505348743,-22572.1773591253,-32539.20019140246
14266.626747444481,4997.537135784285,-24864.505215228226,-32414.410402108482,-36461.32784620856,-36013.22007336856,-22767.01751554221,-32593.805503106774
14210.367406650474,5038.686697326505,-24802.657938320393,-32354.954761857363,-36427.800229525594,-35944.55551440186,-22718.134250418458,-32535.24393263387
14292.577122757093,4994.832574705193,-24830.95524680081,-32412.801076507698,-36169.54817408898,-35978.865442140755,-22522.131803289867,-32475.788292382753
14354.312640942651,4945.256405503322,-24902.860808713533,-32485.645411687543,-36179.20412769367,-36054.570800610876,-22552.79839668255,-32533.90282796655
14282.496486007749,4984.059033877735,-24879.994974135756,-32429.587236593634,-36439.35608140899,-36020.394983338716,-22753.986448524767,-32592.55380541728
14210.725034561758,5040.765409560849,-24805.273092421663,-32347.712796653846,-36467.0051893002,-35937.3806044317,-22747.951477521834,-32538.149659413062
14283.658776719425,5024.582746575206,-24805.25074067721,-32385.286079083216,-36200.34887794839,-35958.88298259771,-22537.487451730663,-32472.457882458915
14362.962766046854,4961.863751633615,-24883.50419801524,-32475.743588893845,-36136.378185317306,-36046.6582830737,-22516.007425309115,-32515.797914957755
14297.673320492902,4967.228170302888,-24890.36618356302,-32454.867059572585,-36393.982040164716,-36041.003291726505,-22719.073023685578,-32593.134950773117
14213.04961598511,5033.165816446044,-24815.33137742655,-32363.470776494836,-36487.524090710176,-35952.82565985032,-22762.770684095703,-32556.075758466217
14260.72588690828,5027.42141812103,-24807.329452911552,-32372.41147427696,-36250.64030297283,-35950.97046506053,-22574.792513226574,-32483.879623875575
14358.313603200151,4971.653815705039,-24875.59168047806,-32464.880641088563,-36119.167342086716,-36038.52224809197,-22497.611939622395,-32502.208054328927
14328.429320863406,4977.711138452428,-24895.730602232292,-32454.66589387249,-36338.125030770905,-36030.855599743794,-22673.654278952396,-32562.893040525087
14223.376121923462,5032.182339690011,-24833.57040090208,-32369.148119586484,-36496.464788492296,-35965.32028500084,-22775.108847035033,-32550.86780200813
14234.395531939928,5026.415589620542,-24812.62681634746,-32373.640820222,-36302.16107394231,-35944.667273124134,-22614.91389452385,-32483.589051197658
14331.245640664774,4960.097963821646,-24882.565424748114,-32473.798987126233,-36127.124563112804,-36030.386213110236,-22505.323291459477,-32502.073943862197
14324.69657953937,4948.072725304691,-24916.60713155355,-32488.059400088718,-36304.642117576856,-36059.890515791245,-22658.499796211698,-32580.8414913227
14233.300296461619,5016.536118571296,-24844.276886496173,-32388.102398884585,-36493.89433787994,-35973.813947893854,-22780.965004082325,-32572.660752852054
14222.593810867527,5030.394200133586,-24805.138981954933,-32361.950857871874,-36339.26496973813,-35942.365043445236,-22641.4454151923,-32495.48017924788
14325.814166762135,4974.693652950961,-24860.325439015083,-32451.246076970827,-36116.41807751871,-36010.58256752283,-22487.531302873052,-32478.09052206165
14341.259222180752,4941.143684523545,-24914.64017804148,-32497.268318804305,-36241.431384257245,-36061.008103014006,-22604.43092637431,-32556.79101428879
14241.637497143449,4991.725682225905,-24866.963907118312,-32409.26950088376,-36484.75247439772,-35997.238576083015,-22779.13216103699,-32587.077628025727
14210.81444153958,5032.003525734369,-24809.922255268368,-32359.805090404167,-36393.15502561987,-35948.89175282619,-22686.48418026974,-32513.71920272341
14310.123242154508,4991.390406059076,-24844.992142318744,-32431.17421044996,-36138.613359762836,-35993.058799869876,-22499.422430923278,-32473.08373130366
14366.963728304354,4958.823914387693,-24898.21164586683,-32477.218804027892,-36189.66474409876,-36041.919713249175,-22565.248318344155,-32534.90865646704
14270.962985868811,4991.569220014718,-24878.340945046064,-32419.32778588865,-36455.96342753928,-36003.4970645305,-22763.105960262536,-32584.842453580197
14210.121537461466,5034.66338332455,-24814.705528581802,-32356.295866524684,-36432.31528190557,-35942.87913356771,-22720.369424863988,-32524.939778439973
14292.599474501549,5004.399121332064,-24835.313836969595,-32414.56686431967,-36168.96702873314,-35989.81779692385,-22521.707120145216,-32475.877699360575
14369.55653066117,4965.127106324089,-24897.898721444457,-32482.694981419445,-36156.15947916025,-36047.53000110746,-22534.112338317915,-32526.7279179964
14294.745241969258,4991.8150892037265,-24885.06882012711,-32429.386070893535,-36415.81969449755,-36020.32792810535,-22733.847526770536,-32583.009610534864
14214.010740996688,5040.988927005402,-24819.846429806523,-32353.568953701135,-36461.66312237539,-35945.516639413436,-22743.816404797602,-32539.06608093573
14277.310881294117,5015.686752281994,-24824.227371719764,-32391.164587874962,-36208.75313386359,-35967.98014259102,-22547.79160592456,-32475.81064412721
14358.872396811534,4949.927920094481,-24898.36810807802,-32480.996248840842,-36137.49577254007,-36053.98965525504,-22516.521515431585,-32518.033089403285
14307.105756653042,4966.177638313489,-24901.989090679777,-32451.536649648748,-36384.884880171405,-36035.86239050179,-22713.887418971946,-32581.467340167444
14217.05057824261,5028.002563476868,-24824.696758353326,-32359.31335202615,-36485.04304707564,-35957.51952618593,-22766.279907975186,-32547.425633362014
14258.378953740474,5019.218327905933,-24811.039842491133,-32368.432863763916,-36252.87547741836,-35954.032654050905,-22574.948975437757,-32474.491891204347
14360.325260201129,4961.908455122525,-24876.15047408944,-32450.061434514697,-36110.226644304596,-36017.46690481507,-22486.056087739,-32485.935984365464
14326.909402240444,4956.342870753154,-24900.066840656622,-32457.191640995938,-36318.61195786142,-36038.58930332533,-22658.38803748942,-32567.408092905058
14218.86106954349,5013.183356903,-24840.097110283034,-32376.099512112083,-36494.52018672469,-35970.97527634803,-22773.79009411217,-32567.564555116245
14236.317781963086,5024.046304708279,-24803.104973209498,-32351.40083448897,-36300.90937625282,-35936.128906742204,-22609.035385732102,-32479.923365106984
14340.387504146995,4964.970644112903,-24863.03000009418,-32442.394786166526,-36104.258728535024,-36020.37263159426,-22477.048334723513,-32475.94475459394
14340.186338446896,4951.894873606548,-24901.117372646022,-32463.22661199887,-36271.919163694285,-36042.053823715905,-22623.56401962805,-32553.50530785386
14235.513119162693,5006.030798677301,-24842.801671362125,-32375.607773734067,-36480.662105162395,-35964.85089836727,-22767.755123109237,-32562.78128180281
14230.975715038267,5040.161912460556,-24788.017545702165,-32333.810011602643,-36334.90637956934,-35927.76935431592,-22635.365740700454,-32484.19254829795
14329.032817963698,4981.6673972210165,-24846.53441268616,-32424.915722002475,-36109.600795459846,-36004.03350639743,-22478.724715557662,-32468.6133824126
14345.148425715975,4938.684992633462,-24908.314634360628,-32478.828129628677,-36229.11557306237,-36052.71560582109,-22593.009184957646,-32547.626799062113
14252.34398273754,4996.3971968170645,-24859.856052381525,-32400.30645135718,-36473.28602949215,-35990.86832891325,-22768.31391672062,-32577.667543610045
14217.519964876172,5037.859682781659,-24796.734726039736,-32339.375595972015,-36389.62344999593,-35943.43792717909,-22680.695078455818,-32508.4218392875
14310.436166576883,4991.099833381157,-24836.543182914636,-32413.963367219374,-36137.09344113987,-35995.58454699333,-22495.153247732313,-32467.42873995647
14364.929719558922,4954.442972474453,-24900.78209647919,-32476.458844716413,-36187.183700464215,-36042.836134771846,-22555.972344395203,-32527.420822074513
14282.898817407944,5001.001656174857,-24866.405113506928,-32404.240358381317,-36441.63595934343,-35995.27162257095,-22747.862070544015,-32577.645191865588
14220.157470721899,5046.889787541603,-24799.05930746309,-32336.738090126288,-36426.95086323629,-35933.15612472965,-22714.26739862769,-32521.25174060485
14292.040680890166,5000.442862563475,-24825.881400809456,-32392.952727431388,-36170.53165084501,-35974.48450022751,-22522.310617245512,-32472.48023420337
14362.806303835667,4941.098981034635,-24897.429334810895,-32473.37430398158,-36153.05258668096,-36052.44738488762,-22536.88395463037,-32526.839676718675
14298.299169337652,4972.704347694439,-24880.039677624667,-32421.69707080091,-36405.783761237115,-36011.23076811204,-22728.438404612352,-32576.169976731537
14215.284790430642,5026.057961709257,-24808.827019790057,-32337.58745641559,-36460.23261073024,-35938.11821199873,-22740.910678018416,-32533.05346167725
14266.135009066464,5001.672208508517,-24815.9572262713,-32375.11603535605,-36210.02718329754,-35964.49327045599,-22545.109396589924,-32471.921440591985
14349.082332740109,4939.154379267023,-24895.86471269902,-32471.966144080896,-36130.43262129219,-36056.04601574493,-22512.207628751712,-32515.23912134637
14310.726739254802,4963.786001656771,-24890.835570196577,-32440.830164054652,-36363.5836677055,-36033.78367826744,-22695.022546651668,-32579.83566282221
14224.560764379594,5034.171644946533,-24809.497572123717,-32343.421261718428,-36469.329770723554,-35944.600217890766,-22748.756140322228,-32541.904752481554
14262.849302631534,5030.28244141131,-24794.52190333866,-32359.06748283714,-36240.35850052339,-35951.35044471627,-22562.789626454072,-32468.546327179236
14363.789780591702,4968.971606370403,-24863.655848938924,-32445.769899579278,-36093.35107724083,-36017.98099493754,-22476.1542649453,-32490.62985070108
14335.581879089104,4959.047431832246,-24894.50125628725,-32452.542478149237,-36305.60324258843,-36037.85169575831,-22653.58241243153,-32566.178746960017
14234.462587173295,5018.950106972469,-24827.49072641024,-32361.92850612742,-36483.053741819116,-35964.44856696708,-22766.749294608748,-32551.96303748644
14253.908604849412,5042.128865972622,-24784.86594973397,-32330.814877845634,-36293.35448662692,-35926.40589790415,-22605.45910661925,-32469.28393474626
14358.492417155794,4986.741243212372,-24842.891078339944,-32415.99737596481,-36092.591117929354,-35996.746837705,-22470.00753522009,-32462.60076315412
14352.904481041967,4955.851132375137,-24895.68589874338,-32456.878716573563,-36257.63639898734,-36044.53486735045,-22618.601932358975,-32551.314836897236
14243.805616355612,5009.875298723615,-24847.83081386457,-32379.765198202756,-36489.42398898888,-35983.604011965275,-22783.378992483496,-32578.025171521327
14235.647229629425,5047.850912553181,-24784.53067356714,-32333.11710752453,-36350.37378673241,-35929.356328172245,-22653.113025797968,-32491.970955368397
14338.889937268488,4993.267952593321,-24831.29052296764,-32413.89631198601,-36109.779609415484,-35993.12585510324,-22472.77915153255,-32457.6610276295
14370.115324272552,4963.070745834201,-24886.119352116508,-32455.515260161792,-36211.100067031395,-36056.314236678394,-22570.836254457983,-32532.49466806587
14268.72781142328,5008.154214400556,-24847.54024118665,-32390.471683796848,-36461.372549697466,-35989.01313412347,-22750.812500812113,-32568.25745919436
14222.280886445153,5048.834389309214,-24785.91648172337,-32335.419337203424,-36394.76435122065,-35927.07645023781,-22673.319002785567,-32502.319813051203
14317.8792974805,5005.606115532651,-24819.421746661872,-32398.98769843432,-36138.83687720739,-35978.48546248501,-22483.329174915456,-32462.80192885422
14379.413649965962,4965.417679002008,-24882.386610792473,-32467.406388212014,-36174.4879096136,-36048.22290518557,-22536.526326719086,-32534.43926983348
14297.203933859342,5004.354417843154,-24854.53633720116,-32407.41430609397,-36430.884770260425,-36001.12777961824,-22730.181840679867,-32587.234090236914
14226.639476613936,5048.9908515204015,-24790.342127125517,-32338.12389828252,-36431.28710166062,-35931.12211598422,-22700.521075787674,-32524.850371462155
14304.691768251869,5021.587612818195,-24803.417897631873,-32389.46585529636,-36165.726025787124,-35963.55449718887,-22491.39815466382,-32462.62311489858
14373.08810628511,4957.259292275821,-24883.7724189487,-32482.80674014172,-36137.98751091809,-36056.582457611854,-22493.856846553907,-32524.04570866176
14308.200992131353,4981.063900120724,-24879.59264273556,-32446.7086728464,-36398.787665222604,-36024.5524078074,-22694.68727048484,-32590.788017605308
14232.070950516576,5048.677927098028,-24798.209941173787,-32341.186087272894,-36459.65146537441,-35939.79459283288,-22713.418032338388,-32544.944589727475
14287.950311654844,5034.909252513558,-24799.3051766521,-32377.619430735045,-36210.0942385309,-35956.267828496435,-22514.39809970833,-32476.23532727186
14374.65272839698,4968.949254625947,-24878.609165979527,-32477.978763339375,-36116.39572577426,-36042.120878949274,-22464.084322939438,-32513.071002134206
14330.016294719731,4978.202876830444,-24890.276776585197,-32458.644504385535,-36350.843173365975,-36035.12478293476,-22653.2471362647,-32588.485787926413
14241.279869232163,5050.376659676631,-24813.990272759234,-32358.084006081106,-36477.48815744974,-35947.327130714315,-22728.617218567993,-32566.983409760407
14276.282701049175,5052.85770331117,-24789.291595136117,-32363.18020381692,-36252.98723614064,-35932.574979373814,-22547.45632975773,-32486.830054143677
14370.875283584033,4983.611998988628,-24867.276831540687,-32470.692094646944,-36098.15670229873,-36012.191893123614,-22451.58969778892,-32499.81641767221
14347.27184143923,4966.982301113881,-24902.056145913142,-32479.409274984515,-36303.68099256528,-36035.75063177951,-22625.039234762102,-32583.523700657333
14248.790055369147,5030.304793155765,-24833.43629043535,-32384.74963721629,-36488.418160488385,-35959.37472097573,-22749.69491358935,-32585.423598936035
14254.109770549509,5046.66627009705,-24795.974766728257,-32373.082026610617,-36310.721792068696,-35941.85095332276,-22598.03832746009,-32502.47627526239
14349.574071118126,4980.058071620235,-24862.985296605268,-32467.965181823398,-36108.86318789282,-36004.70405873109,-22463.704343283694,-32495.72604843689
14363.208635235864,4965.395327257554,-24904.87246571451,-32495.5695862257,-36257.34582630942,-36041.65149231571,-22596.317243137033,-32571.274944695826
14271.678241691381,5032.249394923377,-24840.544145172138,-32401.401686835492,-36475.565907426586,-35950.85870633825,-22743.54818386414,-32585.11067451366
14243.9620785668,5055.674023112539,-24794.678365549848,-32368.32110504164,-36358.95685660325,-35923.34370891377,-22632.795290088092,-32519.865932448618
14339.180509946407,4996.933638683991,-24850.15539528792,-32456.968123551385,-36127.3257288129,-35998.13264586123,-22475.327250400456,-32504.487932263368
14379.123077288043,4968.435164503475,-24904.02309942521,-32505.784333441778,-36214.60929091088,-36038.701062047614,-22567.08116138949,-32561.820156791233
14280.037794117665,5010.858775479648,-24866.650982695937,-32439.824335554164,-36469.86621259048,-35986.4426835111,-22750.879556045482,-32594.476055440435
14238.754122108714,5058.244473724899,-24795.57243532806,-32364.36484627305,-36406.65547927088,-35924.14837171416,-22680.024526122157,-32528.426650575002
14324.473062094816,5013.675095281016,-24829.25651422221,-32434.88460002954,-36145.98943543308,-35982.73229393152,-22487.55365461751,-32482.56087095271
14384.509847701771,4962.958987111925,-24898.88219820049,-32508.86887417661,-36173.30326715747,-36048.37936739676,-22534.067634829004,-32545.01164496084
14304.557657785137,4997.93946718448,-24873.870596155,-32450.46376591489,-36434.371642395454,-35994.377552792736,-22730.383006379965,-32596.934747330517
14242.77743611067,5057.082183013223,-24796.399449872908,-32361.816747405144,-36436.137430207425,-35922.851970535754,-22706.15371539041,-32537.792031501776
14312.581934044592,5025.789740775793,-24815.66665359338,-32417.383184121038,-36184.56854636294,-35959.352369231274,-22515.73920437565,-32485.220728542892
14388.980196592833,4969.418641259509,-24890.142666118463,-32504.15265609654,-36142.14493538677,-36045.71950980658,-22513.347567718934,-32537.00972044584
14328.809300519146,4993.89380143807,-24884.35356430454,-32469.19452776844,-36392.14919711938,-36019.09858216031,-22707.40541307991,-32598.566424675755
14238.999991297722,5048.968499775947,-24815.599598360015,-32380.927488914433,-36474.94005858184,-35936.48653465349,-22746.006875754225,-32562.043674235785
14291.727756467792,5034.886900769103,-24809.564627357082,-32400.261747868273,-36230.59078819642,-35952.89271508369,-22553.245431571657,-32493.177949568984
14382.9452255899,4973.9113418950255,-24885.60526199404,-32497.514187993314,-36121.58133048789,-36042.59026558283,-22495.868503554884,-32525.207999373437
14342.197995447874,4979.387519286575,-24901.49735230176,-32483.85727213112,-36350.284379754594,-36038.67871030315,-22683.265529068176,-32601.44979971049
14245.794921612136,5043.447618895486,-24829.703549111313,-32392.572747775645,-36493.961393113306,-35956.67015989663,-22768.805655098637,-32586.317668714248
14275.768610926702,5047.649746853083,-24803.931987754346,-32397.26661411126,-36276.545974796536,-35955.999607562975,-22588.13650466639,-32506.63369973108
14376.731440631323,4983.500240266352,-24871.367200776007,-32488.305269277727,-36110.33840302687,-36023.457172329094,-22483.485637126643,-32511.171103855504
14365.600271892581,4978.538152997274,-24901.273834857206,-32496.553062981733,-36299.07653320748,-36042.72437604957,-22642.808871604073,-32588.21756699295
14263.519854965194,5040.631299094117,-24834.218601491288,-32396.88663445552,-36488.19464304383,-35960.40290122067,-22767.665716131418,-32590.095113527193
14261.172921797386,5054.087049256212,-24796.354746383997,-32374.512538255756,-36327.55265564354,-35940.889828311185,-22626.22387721823,-32517.027260902796
14361.666364868446,4990.898667681059,-24853.999895334233,-32468.52397543478,-36114.24995830655,-36008.079172143836,-22477.16009344579,-32499.771714183298
14378.9442633324,4971.005615115835,-24896.401154565952,-32499.078810105184,-36247.68987270473,-36037.35995738029,-22600.47466760572,-32572.14666272958
14278.137895838965,5025.90149949807,-24841.594677161538,-32400.999355435295,-36474.26950624818,-35971.35525600377,-22757.428617170885,-32587.658773381565
