Fp1,Fp2,C3,C4,P7,P8,O1,O2
14191.502534330195,5090.922724118558,-23957.829053143152,-31821.329214731362,-35786.17105319155,-35270.471605118706,-21996.284663234313,-31478.47580653141
14305.965817685821,5049.907273043069,-23984.628794745066,-31892.65363128825,-35507.824779489616,-35316.91853009684,-21801.35509983958,-31409.900654542525
14345.93073677191,5010.188223145989,-24051.840490322174,-31953.22685876213,-35583.84306238211,-35385.404275107896,-21892.729031172876,-31491.775094482316
14244.565575667093,5048.566168375751,-24016.3682718716,-31883.511767806027,-35860.62471397218,-35336.09632683949,-22090.072582968784,-31551.990694044915
14180.885455713924,5090.319227018264,-23946.094387304114,-31817.507066429505,-35817.32938496225,-35276.64068658837,-22026.101890337693,-31487.90824269155
14273.220512058797,5049.95197653198,-23981.320736565678,-31882.908270705735,-35533.97632050232,-35322.77468714413,-21817.917742480964,-31427.08914602866
14339.672248324425,5001.22517361941,-24053.31570545622,-31951.505774439072,-35541.307692683666,-35387.66180129788,-21851.110082997096,-31484.75664672335
14258.021325829188,5032.294098412287,-24038.76471981582,-31898.196863913163,-35822.85026584271,-35350.08851886851,-22057.819015719775,-31554.427034190543
14179.52199930215,5077.332863489731,-23963.282878790247,-31828.749993890524,-35851.974588867975,-35278.47352963371,-22050.778216216353,-31505.94610046698
14256.769628139691,5057.596273135695,-23975.196358584926,-31879.220232870608,-35577.53987044572,-35306.63672764739,-21848.785501573744,-31434.912256588013
14340.74513205828,4993.670283993517,-24036.194269203457,-31964.246268778596,-35505.83547423309,-35382.02916169514,-21829.294780408716,-31469.51275700483
14284.06110811962,5025.320354142232,-24042.296295439755,-31917.709936822648,-35775.53162283082,-35374.16134764688,-22040.429358533547,-31558.092720281213
14178.359708590473,5082.540819947818,-23985.902844179018,-31833.510915459505,-35881.3671328267,-35295.84083507548,-22087.926815501072,-31531.71766182395
14220.67156084437,5047.783857319815,-23976.738628952342,-31875.532195035485,-35631.6087402831,-35307.91077708135,-21896.39471726355,-31453.777128908296
14322.014370204732,4986.920057168014,-24053.89685081206,-31975.824472406446,-35500.15813114144,-35394.30026940111,-21830.211201931383,-31479.32517282071
14291.191314600865,5014.189185403488,-24062.971659060917,-31947.840088348403,-35735.03026187781,-35399.61998458147,-22018.41289024507,-31569.514461697872
14195.548200076604,5078.226933267943,-23984.427629044967,-31848.017197611,-35894.755827755434,-35312.11290503894,-22108.982158777973,-31556.550449913797
14220.24687769972,5080.640921669116,-23958.879585132552,-31844.0162353535,-35677.340409438664,-35289.962326283734,-21926.882496700586,-31456.861669643127
14324.69657953937,5015.977324959913,-24030.673388322997,-31941.246323734085,-35482.67906697739,-35364.72891148674,-21806.004262686285,-31440.500192701842
14312.44782357786,5001.247525363866,-24079.19902553547,-31949.7399866271,-35680.84963331815,-35391.64041181093,-21976.10103799117,-31523.581626842217
14206.835831026536,5064.570017405751,-24000.923216452982,-31856.68967445966,-35892.36419109871,-35315.555073685064,-22117.207600737525,-31545.62044687515
14198.945665233812,5078.405747223585,-23971.97770738336,-31839.300017273432,-35745.51323002735,-35286.72132333771,-21992.238997487904,-31480.1298356211
14315.107681168043,5029.56718558874,-24019.296350395245,-31921.64384384678,-35504.941404454876,-35355.02825439313,-21836.17911770095,-31452.860707385626
14327.758768529746,5008.042455678279,-24081.702420914462,-31951.70694013917,-35635.319129862684,-35398.72591480326,-21950.910621990042,-31521.033527974312
14224.516060890683,5053.371793433642,-24030.002835989337,-31873.677000245694,-35898.06388593482,-35331.33540527051,-22121.499135672944,-31556.662208636073
14211.663807828882,5102.76914867987,-23947.569602438165,-31805.951214546112,-35778.72792228794,-35255.987674711665,-21998.899817335587,-31466.204698825444
14320.941486470878,5059.652633625583,-23980.828998187662,-31873.677000245694,-35502.48271256479,-35314.2363207622,-21806.004262686285,-31415.35448018962
14358.581824133615,5011.931659213503,-24056.19908049096,-31947.03542554801,-35574.3435709886,-35388.354705376,-21891.164409061006,-31493.809103227748
14250.57819492557,5046.6439183525945,-24032.975618001896,-31890.709029520636,-35861.18350758356,-35348.45684152327,-22098.320376672793,-31559.2997144818
14195.123516931953,5091.034482840834,-23957.53848046523,-31824.547865932927,-35816.36825995067,-35268.45994811773,-22035.422567775557,-31485.60601301265
14275.522741737694,5042.486493883907,-23990.909634937005,-31879.086122403878,-35540.97241651683,-35320.584216187504,-21836.782614801243,-31427.759698362315
14356.257242710262,5009.115339412134,-24048.04069376477,-31948.912972082257,-35532.88108502401,-35389.025257709654,-21862.42006569148,-31477.80525419775
14275.746259182246,5038.7761043043265,-24039.5246791273,-31896.296965634465,-35810.51210290338,-35353.57539100354,-22068.078466424762,-31544.838135819216
14190.161429662876,5086.608837438684,-23979.286727820247,-31817.797639107426,-35860.289437805346,-35276.66303833283,-22076.572129317778,-31500.693440519983
14255.62968917247,5060.703165614983,-23977.856216175107,-31863.30579081843,-35587.12876881704,-35303.19455900128,-21871.71839138489,-31430.17368676349
14339.873414024523,4998.140632884578,-24056.310839213234,-31957.451338464183,-35506.26015737774,-35385.13605417443,-21839.330713669147,-31466.76349243683
14276.595625471547,5013.138653414089,-24079.377839491113,-31936.46305042065,-35780.20313742199,-35378.87756572694,-22043.536251012833,-31547.2968277093
14194.0506331981,5084.306607759787,-23978.32560280867,-31829.9122846022,-35883.982286927974,-35289.51529139463,-22089.156161446117,-31516.94315873899
14229.366389437484,5067.743965118404,-23979.73376270935,-31857.427282026685,-35641.66702528799,-35296.667849620324,-21901.781487677275,-31442.780070636283
14333.41375987694,5006.746054499871,-24038.496498882356,-31948.711806382158,-35494.950174683356,-35377.648219781906,-21824.13152743954,-31454.47003298641
14306.189335130375,5014.7703307593265,-24059.61889739262,-31934.60785563086,-35722.580340216206,-35387.03595245313,-22006.16413428356,-31536.38917641511
14191.591941308016,5070.269712241854,-24003.89599846554,-31847.43605225516,-35898.8238452463,-35308.26840499263,-22108.132792488672,-31531.2929786793
14209.026301983155,5079.970369335458,-23971.038934116237,-31839.88116262927,-35695.40061895855,-35294.097399007966,-21942.729883519398,-31449.64205618406
14329.83748076409,5023.800435519271,-24019.318702139703,-31915.27359667702,-35488.13289262449,-35360.25856259568,-21817.98479771433,-31444.94818984845
14312.44782357786,4994.117318882623,-24065.162130017536,-31943.347387712885,-35678.92738329499,-35396.46838861327,-21980.169055482038,-31530.48831587891
14203.863049013979,5055.04817426779,-24016.882361994074,-31856.8684884153,-35895.69460102256,-35321.32182375453,-22110.70324310103,-31540.054862505778
14192.776583764147,5075.544723933306,-23972.380038783558,-31825.285473499953,-35741.936950914496,-35275.36663715442,-21962.645287829077,-31445.864611371115
14307.93277119789,5027.957859987958,-24008.74632701234,-31910.579730341404,-35486.88119493499,-35340.1419925859,-21791.475628790336,-31412.73932608835
14328.764597030235,4993.4020630600535,-24059.350676459155,-31965.877946123834,-35613.727344718856,-35399.70939155929,-21920.847525697653,-31501.632213787107
14213.943685763323,5041.860645039159,-24022.358539385623,-31882.684753261183,-35887.24564161845,-35347.56277174506,-22114.167763491605,-31560.707874382482
14190.452002340795,5097.427081755052,-23960.623021200066,-31821.575083920372,-35802.66664059957,-35285.491977392674,-22024.58197171473,-31488.55644328075
14286.028061631689,5041.838293294703,-24004.007757187817,-31897.392201112772,-35533.75280305777,-35335.24696055019,-21835.575620600655,-31435.851029855137
14343.092065226087,5007.081330666701,-24065.72092362892,-31950.41053896076,-35574.88001285553,-35387.25946989768,-21892.23729279486,-31487.75178048036
14248.8124071136,5039.111380471156,-24046.051388508247,-31895.089971433878,-35852.68984469055,-35341.840725164504,-22086.675117811577,-31541.015987517356
14192.418955852861,5095.9518666210015,-23950.721198406365,-31812.388516949242,-35829.91341709059,-35273.86907027591,-22043.11156786818,-31483.86257694514
14275.679203948881,5063.541837160807,-23980.091390620637,-31871.93356417818,-35560.08315802612,-35316.247977763174,-21850.216013218884,-31429.056099540725
14350.132864729509,5003.236830620388,-24055.975563046406,-31955.640847163304,-35538.916056026945,-35394.81435952358,-21860.050780779216,-31482.81204495574
14268.43723874536,5024.582746575206,-24051.304048455248,-31913.753678054058,-35818.58108265175,-35373.82607148005,-22066.37973384616,-31558.092720281213
14176.348051589495,5079.210410023977,-23981.074867376672,-31833.10858405931,-35875.57803101278,-35295.617317630924,-22077.935585729552,-31520.00534772937
14250.600546670026,5069.822677352748,-23981.678364476964,-31863.484604774072,-35604.45137076991,-35304.714477624235,-21875.18291177546,-31436.767451377804
14347.540062372693,5021.788778518293,-24063.642211394574,-31947.482460437117,-35511.35635511355,-35384.75607451869,-21838.36958865757,-31465.51179474733
14296.354567570039,5029.187205933,-24053.80744383424,-31927.54470438298,-35771.865936740156,-35383.7502460182,-22033.902649152595,-31552.147156256102
14192.955397719788,5085.267732771365,-23986.439286045945,-31843.435089997663,-35893.504130065936,-35298.0313060321,-22087.56918758979,-31538.020853760347
14233.881441817457,5086.452375227496,-23953.6045734411,-31851.012331368012,-35644.975083467376,-35287.235413460185,-21882.737801401356,-31445.59639043765
14339.895765768977,5024.046304708279,-24019.85514400663,-31936.753623098568,-35480.756816954236,-35372.395559834906,-21789.911006678463,-31453.62066669711
14323.064902194132,5021.94524072948,-24044.799690818752,-31941.55924815646,-35702.53082543979,-35384.75607451869,-21970.267232688337,-31542.513554395864
14202.700758302302,5080.8644391136695,-23995.5140942948,-31858.656627971726,-35895.806359744834,-35315.30920449605,-22086.786876533854,-31555.075234779746
14220.157470721899,5098.544668977817,-23957.203204298403,-31835.857848627315,-35700.0274300608,-35287.83891056048,-21922.05451989824,-31471.770283194815
14336.185376189396,5037.434999637008,-23997.07871640667,-31916.70410832216,-35475.370046540505,-35353.06130088107,-21777.438733272404,-31444.18823053697
14333.816091277135,5017.139615671589,-24060.177691004003,-31953.115100039853,-35648.55136258023,-35391.81922576657,-21923.23916235437,-31531.136516468112
14225.365427179984,5077.534029189829,-24003.22544613188,-31858.835441927367,-35884.00463867243,-35315.21979751823,-22075.6110043062,-31551.364845200165
14197.358691377485,5091.414462496575,-23956.532651964742,-31834.986130593556,-35754.00689292036,-35281.088683734975,-21955.872709259118,-31479.056951887247
14302.233076361785,5039.401953149075,-24006.4664490779,-31924.638977603794,-35500.58281428609,-35347.31690255605,-21780.299756562683,-31446.736329404874
14334.64310582198,4997.045397406268,-24059.015400292326,-31962.927515855732,-35601.03155386824,-35389.62875480995,-21880.815551378197,-31511.80225751427
14236.161319751898,5060.47964817043,-24022.403242874534,-31887.043343429967,-35870.30301932133,-35335.626940205926,-22071.811207748797,-31563.278324994844
14209.741557805724,5110.0334656278455,-23946.228497770848,-31820.502200186518,-35792.42954163904,-35270.58336384098,-21983.812389828254,-31491.23865261539
14300.288474594174,5052.321261444243,-23976.850387674618,-31897.03457320149,-35512.25042489176,-35322.819390633034,-21782.4902275193,-31432.520619931296
14342.019181492233,4995.793699716771,-24062.85990033864,-31980.85361490889,-35555.88103006852,-35403.084504972045,-21846.080940494652,-31507.264853389843
14252.478093204272,5040.89952002758,-24055.059141523736,-31913.46310537614,-35845.269065531385,-35358.11279512796,-22060.6576872656,-31588.848720651713
14195.950531476801,5102.612686468683,-23957.31496302068,-31826.44776421163,-35831.835667113744,-35267.096491705954,-22022.97264611395,-31514.0374319598
14265.911491621911,5063.921816816547,-23983.153579611015,-31887.758599252535,-35559.47966092583,-35300.69116362228,-21819.907047737488,-31429.033747796268
14345.170777460431,4998.967647429425,-24057.160205502536,-31968.560155458472,-35524.56623608664,-35377.60351629299,-21824.511507095278,-31476.978239652904
14264.43627648786,5013.764502258838,-24071.353563231656,-31943.66031213526,-35799.58209986473,-35364.058359153074,-22032.20391657399,-31565.848775607203
14174.984595177722,5067.453392440485,-23995.491742550344,-31864.468081530107,-35874.683961234565,-35288.1294832384,-22058.31075409779,-31527.71669956645
14258.848340374034,5083.390186237119,-23956.10796882009,-31857.404930282228,-35603.512597502784,-35286.38604717088,-21849.90308879651,-31436.722747888896
14340.722780313825,5015.351476115165,-24033.24383893536,-31959.79827163199,-35494.4807880498,-35371.05445516759,-21801.489210306314,-31468.104597104146
14287.145648854454,5019.911231984047,-24062.18934800498,-31948.108309281866,-35756.44323306599,-35377.82703373754,-22013.74137565391,-31564.887650595625
14204.354787391996,5088.978122350946,-23977.252719074815,-31845.178526065178,-35887.04447591835,-35288.39770417186,-22080.662498553098,-31545.084005008222
14235.446063929328,5086.050043827301,-23956.30913452019,-31859.148366349742,-35647.165554424,-35275.74661681016,-21887.431667736968,-31458.26982954381
14339.940469257888,5026.214423920444,-24029.444042377956,-31951.729291883625,-35479.125139609,-35355.475289282236,-21792.257939846273,-31452.458375985432
14324.36130337254,5019.4641970949415,-24046.409016419533,-31957.093710552897,-35687.86808107711,-35371.23326912323,-21965.528662863813,-31539.96545552796
14212.312008418085,5073.24249425441,-23986.953376168418,-31854.92388664769,-35881.5682985268,-35292.778646085106,-22085.557530588812,-31546.8944963091
14225.678351602359,5101.495099245918,-23936.863116844073,-31828.370014234784,-35689.857386333635,-35260.86035500292,-21925.116708888618,-31450.871402129105
14323.199012660863,5020.894708740081,-24009.953321212928,-31951.103443038875,-35476.53233725218,-35343.13712634291,-21792.30264333518,-31440.65665491303
14322.170832415919,5004.019141676324,-24064.156301517047,-31972.18113806023,-35639.83418224266,-35392.33331588904,-21940.226488140404,-31540.032510761324
14218.10111023201,5054.288214956309,-24005.4159170885,-31876.269802602506,-35875.64508624614,-35324.451067978276,-22098.253321439424,-31572.64370592162
14197.515153588673,5089.693378173516,-23943.635695414032,-31842.362206263806,-35748.46366029545,-35278.83115754499,-21975.49754089088,-31488.89171944758
14289.82785818909,5024.09100819719,-24023.76669928631,-31931.858591062857,-35504.941404454876,-35344.23236182122,-21813.22387614535,-31458.94038187747
14325.255373150752,4989.266990335821,-24088.92203437353,-31986.75447544509,-35612.05096388471,-35401.18460669334,-21924.356749577135,-31538.132612482623
14238.10592151951,5054.265863211855,-24015.69771953794,-31892.49716907706,-35862.90459190662,-35331.82714364852,-22091.480742869466,-31564.172394773057
14194.452964598295,5103.618514969172,-23951.615268184578,-31830.739299147048,-35797.928070775044,-35271.097453963455,-22009.896875607596,-31493.183254383
14287.436221532373,5062.178380749033,-23991.7142977374,-31901.0802389479,-35520.60997731805,-35318.46080046425,-21815.906085479986,-31439.092032801156
14341.12511171402,5002.208650375444,-24056.221432235412,-31981.211242820176,-35550.27074221024,-35390.12049318796,-21865.95164131542,-31502.213359142945
14255.093247305544,5035.110418213656,-24036.440138392467,-31924.37075667033,-35833.959082837,-35357.37518756094,-22075.70041128402,-31583.663115938085
14189.624987795949,5088.419328739564,-23964.10989333509,-31835.50022071603,-35840.150516051115,-35270.337494651976,-22044.005637646394,-31516.987862227903
14268.34783176754,5057.775087091338,-23978.146788853024,-31890.59727079836,-35557.62446613604,-35296.86901532042,-21828.668931563967,-31431.291273986255
14354.98319327631,5016.223194148922,-24043.972676273905,-31968.47074848065,-35509.18823590138,-35378.45288258229,-21822.343387883117,-31479.794559454273
14289.313768066619,5044.90048228508,-24041.357522172635,-31922.582617113905,-35780.381951377625,-35358.135146872424,-22029.477003750446,-31558.182127259035
14185.892246471913,5087.7934798948145,-23976.984498141348,-31847.21253481061,-35874.23692634546,-35283.547375625065,-22071.31946937078,-31522.128763452623
14246.57723266807,5073.197790765499,-23961.94177412293,-31873.7217037346,-35607.71472546038,-35291.63870711788,-21871.85250185162,-31439.315550245712
14344.522576871226,5018.033685449802,-24039.703493082943,-31956.98195183062,-35487.127064124,-35369.869812711455,-21812.016881944764,-31465.198870324955
14307.865715964523,5031.020048978335,-24059.060103781238,-31932.909123052257,-35732.32570079872,-35369.892164455916,-22004.26423600486,-31554.449385934997
14209.67450257236,5094.946038120513,-23969.183739326447,-31846.229058054574,-35876.516804279905,-35290.252898961655,-22083.121190443184,-31540.47954565043
14231.534508649649,5090.185116551533,-23963.104064834602,-31853.716892447104,-35660.06251097471,-35279.81463430102,-21914.365519805615,-31456.638152198575
14337.772350045723,5026.192072175989,-24032.75210055734,-31937.312416709952,-35484.042523389166,-35356.391710804906,-21805.51252430827,-31452.681893429984
14329.323390641617,5028.449598365974,-24052.443987422466,-31937.111251009854,-35677.80979607222,-35370.56271678957,-21965.171034952527,-31532.1423449686
14228.785244081646,5089.894543873614,-23994.50826579431,-31848.374825522285,-35878.17083336959,-35291.63870711788,-22088.55266434582,-31540.636007861616
14234.373180195473,5107.373608037664,-23940.21587851237,-31827.900627601222,-35699.64745040506,-35258.40166311284,-21936.80667123874,-31453.41950099701
14340.633373336002,5045.079296240723,-24003.404260087522,-31926.38241367131,-35478.83456693108,-35333.32471052703,-21798.963463182863,-31438.443832211953
14351.228100207818,5017.698409282972,-24055.975563046406,-31950.388187216307,-35629.5076763043,-35374.94365870281,-21933.744482248367,-31514.640929060097
14244.431465200361,5081.065604813767,-23998.777448985275,-31862.277610573485,-35876.11447287971,-35309.90008233787,-22097.649824339132,-31552.10245276719
14214.234258441242,5102.433872513041,-23948.374265238555,-31824.570217677385,-35761.80765173527,-35266.895326005855,-21991.233168987415,-31476.531204763796
14314.839460234578,5047.448581152986,-24001.593768786643,-31908.545721595972,-35500.180482885895,-35329.92724536982,-21815.101422679596,-31441.975407835893
14356.324297943629,5012.624563291617,-24053.047484522758,-31961.13937629931,-35576.35522798958,-35381.93975471732,-21895.32183352969,-31501.29693762028
14265.129180565977,5063.8994650720915,-24011.60735030262,-31882.260070116532,-35845.7608039094,-35323.311129011054,-22079.299042141323,-31540.367786928153
14210.076833972555,5096.91299163258,-23956.13032056455,-31833.890895115244,-35799.827969053746,-35258.17814566829,-22015.77538439934,-31478.632268742596
14295.013462902722,5064.391203450108,-24001.213789130903,-31891.78191325449,-35528.03075647721,-35311.710573638746,-21823.885658250532,-31432.297102486744
14369.578882405625,5024.09100819719,-24057.160205502536,-31950.678759894225,-35535.89857052548,-35379.61517329397,-21855.356914443604,-31490.881024704104
14285.06693662011,5059.272653969843,-24022.2691324078,-31897.302794134954,-35810.82502732576,-35337.1915623178,-22056.74613198592,-31547.185068987023
14188.865028484468,5095.1025003317,-23972.849425417116,-31828.951159590622,-35842.56450445229,-35270.203384185246,-22050.13001562715,-31497.76536199634
14268.414887000907,5062.200732493488,-23978.32560280867,-31874.951049679647,-35567.97332381884,-35299.86414907744,-21847.712617839887,-31429.88311408557
14355.854911310067,5008.198917889466,-24049.739426343374,-31967.062588579967,-35509.56821555713,-35387.79591176462,-21841.118853225573,-31480.263946087834
14289.581989000082,5024.962726230947,-24052.645153122565,-31934.31728295294,-35777.34211413171,-35366.36058883197,-22039.110605610684,-31558.00331330339
14198.85625825599,5081.758508891882,-23981.208977843402,-31842.786889408457,-35865.65385647462,-35278.8758610339,-22064.613946034187,-31514.41741161554
14251.20404377032,5065.844066839703,-23969.586070726644,-31863.350494307342,-35609.525216761256,-35281.66982909082,-21863.09061802514,-31424.943378560947
14353.373867675527,5016.111435426645,-24035.076681980692,-31955.08205355192,-35480.60035474305,-35363.83484170852,-21798.963463182863,-31443.852954370137
14310.25735262124,5010.501147568363,-24063.86572883913,-31954.90323959628,-35724.25672105035,-35373.96018194678,-21993.848323088685,-31538.132612482623
14201.806688524091,5074.427136710541,-24003.13603915406,-31851.705235446127,-35887.33504859627,-35292.93510829629,-22089.3126236573,-31528.81193504476
14230.305162704608,5089.805136895792,-23972.290631805736,-31843.457441742117,-35671.79717681374,-35270.6280673299,-21908.352900547136,-31435.51575368831
14347.31654492814,5035.848025780681,-24024.079623708683,-31932.08210850741,-35483.193157099864,-35346.244018822195,-21797.01886141525,-31433.25822749832
14333.190242432385,5017.966630216436,-24064.33511547269,-31951.46107095016,-35687.42104618801,-35379.034027938134,-21974.648174601578,-31533.70696708047
14219.978656766256,5071.364947720164,-24007.94166421195,-31870.480700788583,-35898.86854873521,-35308.1342945259,-22105.294120942846,-31555.254048735387
14213.004912496199,5093.783747408837,-23970.055457360206,-31851.437014512663,-35727.00598561835,-35278.18295695579,-21956.185633681493,-31465.355332536143
14320.06976843712,5038.887863026603,-24025.55483884273,-31925.488343893096,-35498.48175030729,-35346.28872231111,-21811.88277147803,-31437.728576389385
14346.757751316758,5011.909307469047,-24060.33415321519,-31962.882812366825,-35628.23362687035,-35387.639449553426,-21933.923296204008,-31513.366879626145
14228.494671403727,5047.605043364173,-24020.503344595832,-31894.64293654477,-35886.95506894053,-35333.50352448267,-22109.876228556186,-31557.332760969733
14208.646322327415,5109.228802827454,-23963.5063962348,-31834.49439221554,-35779.063198454765,-35270.85158477445,-22002.20787551497,-31483.259079844844
14294.9240559249,5048.543816631296,-24022.626760319086,-31921.196808957677,-35522.04048896319,-35330.933073870314,-21819.08003319264,-31435.64986415504
14357.017202021743,5015.843214493181,-24062.18934800498,-31971.62234444885,-35584.89359437151,-35390.74634203271,-21895.47829574088,-31509.075344690722
14255.20500602782,5062.714822615961,-24021.531524840775,-31897.101628434855,-35857.65193195963,-35335.2916640391,-22082.160065431603,-31556.77396735835
14195.212923909776,5103.596163224717,-23967.97674512586,-31832.81801138139,-35826.06891704427,-35266.336532394474,-22027.107718838182,-31480.88979493258
14284.664605219914,5071.946093076002,-23999.403297830024,-31897.660422046236,-35550.449556165884,-35311.643518405384,-21837.341408412627,-31424.898675072036
14347.651821094969,5004.756749243349,-24062.412865449533,-31965.766187401558,-35547.47677415333,-35387.214766408775,-21868.499740183324,-31488.154111880558
14271.387669013462,5042.531197372818,-24044.151490229546,-31916.547646110972,-35821.9561960645,-35354.67062648185,-22067.36321060219,-31558.897383081603
14203.036034469133,5104.7584539363925,-23976.44805627442,-31828.817049123893,-35859.864754660695,-35265.017779471615,-22062.669344266575,-31498.726487007916
14261.262328775209,5069.219180252455,-23997.145771640036,-31876.60507876934,-35589.78862640722,-35290.2305472172,-21860.922498812975,-31417.88022731307
14348.903518784467,5011.931659213503,-24056.824929335708,-31964.98387634562,-35516.72077378282,-35380.084559927534,-21837.38611190154,-31463.41073076853
14294.700538480347,5031.780008289816,-24054.36623744562,-31937.759451599057,-35778.19148042101,-35375.86008022548,-22037.903611410096,-31557.511574925375
14196.062290199077,5084.57482869325,-23994.821190216684,-31866.099758875345,-35891.35836259823,-35301.09349502248,-22098.253321439424,-31542.602961373683
14247.62776465747,5084.932456604535,-23980.717239465386,-31869.698389732646,-35645.01978695629,-35290.319954195016,-21905.447173767945,-31444.836431126172
14344.187300704396,5025.1862436755,-24046.833699564184,-31949.00237906008,-35499.93461369689,-35369.48983305572,-21824.735024539834,-31452.61483819662
14322.12612892701,5026.192072175989,-24066.614993407133,-31943.906181324266,-35727.36361352964,-35376.53063255914,-22007.92992209553,-31542.714720095963
14221.47622364476,5089.6710264290605,-24001.526713553278,-31845.11147083181,-35895.82871148929,-35290.677582106306,-22109.630359367176,-31539.272551449845
14237.81534884159,5099.0587591002895,-23962.70173343441,-31850.140613334253,-35690.25971773383,-35275.79132029907,-21931.91163920303,-31449.88792537307
14350.17756821842,5038.28436592631,-24022.17972542998,-31925.465992148638,-35489.0269624027,-35353.66479798136,-21807.948864453898,-31437.03567231127
14337.101797712065,5016.1337871711,-24073.879310355107,-31950.835222105412,-35680.53670889577,-35385.76190301918,-21976.950404280473,-31527.940217011004
14224.29254344613,5072.214314009466,-24008.70162352343,-31862.791700695958,-35900.61198480272,-35306.16734101383,-22114.883019314173,-31542.82647881824
14225.521889391171,5103.037369613334,-23961.360628767092,-31826.939502589645,-35733.84561942168,-35261.15092768084,-21965.930994264007,-31452.816003896714
14333.190242432385,5048.409706164563,-24011.495591580344,-31908.389259384785,-35492.983221171286,-35330.37428025893,-21807.36771909806,-31424.563398905208
14359.900577056478,5016.156138915556,-24051.751083344352,-31951.08109129442,-35613.235606340844,-35382.40914135089,-21925.206115866436,-31509.120048179633
14255.562633939104,5072.750755876393,-24013.864876492607,-31865.853889686336,-35869.945391410045,-35318.349041741974,-22099.66148134011,-31545.888667808613
14211.61910433997,5100.735139934438,-23956.152672309003,-31826.403060722718,-35784.2488031684,-35267.74469229516,-22011.707366908475,-31473.401960540054
14305.250561863251,5048.0520782532785,-23996.765791984297,-31904.16477968273,-35517.19016041639,-35325.903931367866,-21828.154841441494,-31426.776221606284
14358.447713666883,5005.6731707660165,-24065.2291852509,-31960.915858854754,-35568.01802730776,-35390.61223156598,-21891.834961394663,-31494.32319335022
14264.615090443504,5058.937377803013,-24038.004760504336,-31889.323221364408,-35843.637388186144,-35341.03606236411,-22087.27861491187,-31558.092720281213
14212.714339818282,5115.15201510811,-23944.26154425878,-31812.05324078241,-35811.29441395932,-35260.14509918036,-22032.516840996366,-31486.500082790863
14280.954215640333,5055.159932990066,-23983.08652437765,-31878.84025321487,-35540.30186418317,-35308.1342945259,-21832.938114754932,-31425.569227405696
14358.581824133615,5010.903478968558,-24057.540185158276,-31954.679722151726,-35529.70713731136,-35382.20797565079,-21854.194623731928,-31475.771245452317
14285.11164010902,5038.552586859773,-24037.870650037607,-31912.99371874258,-35804.164207478076,-35353.240114836706,-22060.41181807659,-31543.832307318728
14208.802784538602,5104.467881258474,-23964.623983457564,-31830.58283693586,-35854.85796390271,-35270.15868069633,-22073.5099403274,-31499.955832952957
14268.079610834076,5085.155974049088,-23976.626870230066,-31869.340761821364,-35590.66034444098,-35296.22081473122,-21871.89720534053,-31431.760660619817
14359.721763100835,5018.771293016826,-24050.05235076575,-31939.52523941103,-35506.26015737774,-35375.59185929201,-21836.69320782342,-31463.746006935362
14308.335102598085,5034.66338332455,-24045.872574552606,-31908.545721595972,-35753.0904713977,-35360.169155617856,-22028.56058222778,-31533.930484525026
14198.56568557807,5077.936360590024,-23993.189512871446,-31841.66930218569,-35883.95993518352,-35289.98467802819,-22097.918045272596,-31517.52430409483
14247.806578613112,5082.205543780988,-23968.155559081504,-31846.005540610022,-35640.25886538731,-35284.21792795872,-21908.95639764743,-31431.671253641995
14347.473007139328,5024.225118663921,-24046.274905952803,-31935.65838762026,-35494.16786362742,-35367.70169349929,-21830.099443209107,-31447.31747476071
14319.64508529247,5018.346609872176,-24066.547938173764,-31935.524277153527,-35716.277148279805,-35384.353743118496,-22013.830782631732,-31541.351263684188
14216.424729397862,5087.7934798948145,-23992.384850071056,-31837.02013933899,-35893.68294402158,-35298.903024065854,-22120.314493216814,-31547.72151085395
14241.861014588001,5110.122872605667,-23955.45976823089,-31816.791810606937,-35690.08090377819,-35271.96917199721,-21947.66961904402,-31453.866535886114
14347.227137950318,5044.85577879617,-24020.123364940093,-31906.802285528458,-35485.853014690045,-35341.66191120886,-21817.582466314136,-31430.576018163687
14346.824806550123,5024.940374486491,-24053.18159498949,-31927.947035783178,-35656.44152837295,-35375.86008022548,-21969.06023848775,-31524.81097278726
14230.975715038267,5086.9664653499685,-24006.488800822353,-31839.076499828876,-35886.30686835133,-35305.139160768886,-22118.638112382665,-31545.262818963867
14217.251743942708,5098.678779444549,-23968.02144861477,-31821.329214731362,-35748.75423297337,-35269.21990742921,-21986.941634051997,-31456.973428365403
14334.866623266535,5057.395107435597,-24003.60542578762,-31889.54673880896,-35489.2281281028,-35325.59100694549,-21811.65925403348,-31413.342823188643
14358.134789244508,5023.733380285905,-24059.61889739262,-31945.69432088069,-35604.67488821446,-35379.39165584942,-21920.8251739532,-31489.964603181437
14261.664660175404,5074.538895432817,-24007.98636770086,-31849.134784833765,-35855.34970228073,-35306.01087880265,-22087.412725378603,-31517.233731416913
14215.86593578648,5110.905183661603,-23954.87862287505,-31801.033830765944,-35782.348904889695,-35254.959494466726,-22005.203009271983,-31446.199887537947
14314.59359104557,5064.86059008367,-23976.850387674618,-31873.855814201335,-35510.194064401876,-35304.40155320186,-21816.330768624637,-31393.293308412234
14357.933623544412,5008.869470223126,-24062.882252083094,-31940.93339931171,-35567.05690229618,-35377.2011848928,-21893.109010828615,-31472.865518673127
14265.643270688448,5051.404839921575,-24034.249667435848,-31873.609945012326,-35841.89395211863,-35333.05648959357,-22087.837408523254,-31533.438746147007
14203.706586802791,5104.356122536197,-23958.36549501008,-31805.48182791255,-35826.40419321111,-35263.36375038192,-22038.50710851039,-31472.239669828377
14292.465364034817,5074.00245356589,-23975.330469051656,-31862.545831506948,-35547.521477642236,-35299.30535546605,-21833.563963599678,-31403.329241672665
14364.952071303376,5012.557508058251,-24052.265173466825,-31939.726405111123,-35522.286358152196,-35375.23423138073,-21850.238364963338,-31456.88402138758
14298.768555971214,5046.152179974578,-24039.36821691611,-31892.050134187954,-35792.16132070557,-35342.108946097964,-22048.945373171016,-31521.56996984124
14204.377139136452,5094.007264853391,-23980.31490806519,-31814.511932672496,-35864.200993085025,-35271.9244685083,-22074.001678705416,-31487.32709733571
14263.899834620934,5075.38826172212,-23978.772637697773,-31851.660531957215,-35599.71280094538,-35291.2810792066,-21878.021583321286,-31414.773334833782
14360.727591601324,5019.888880239592,-24049.940592043473,-31940.061681277955,-35498.727619496305,-35366.606458020986,-21835.93324851194,-31439.65082641254
14304.892933951967,5031.131807700612,-24057.18255724699,-31915.40770714375,-35760.15362264557,-35363.00782716368,-22036.92013465406,-31526.867333277147
14199.504458845195,5082.965503092469,-24001.526713553278,-31836.193124794143,-35893.571185299304,-35285.000239014655,-22105.80821106532,-31514.685632549004
14240.564613409593,5088.687549673027,-23964.914556135485,-31832.929770103667,-35643.03048169977,-35276.059541232535,-21895.70181318543,-31411.152352232024
14352.368039175039,5030.975345489424,-24031.165126701013,-31928.61758811684,-35482.142625110464,-35353.97772240373,-21806.78657374222,-31418.59548313564
14312.067843922121,5014.412702848042,-24071.018287064828,-31942.7885941015,-35705.794180130266,-35377.02237093716,-22001.626730159132,-31524.028661731325
14208.020473482666,5076.19292452251,-24003.247797876335,-31838.897685873235,-35893.973516699494,-35297.1819397428,-22122.03557753987,-31529.504839122874
14233.032075528155,5109.877003416658,-23950.49768096181,-31815.115429772788,-35693.36661021312,-35265.710683549725,-21950.754159778855,-31432.341805975655
14342.041533236687,5035.75861880286,-24021.91150449652,-31916.994681000077,-35485.987125156775,-35342.555980987076,-21819.012977959275,-31413.007547021814
14341.303925669663,5020.157101173056,-24072.538205687786,-31941.402785945273,-35658.72140630739,-35380.82216749456,-21970.133122221607,-31501.006364942357
14236.831872085557,5082.898447859103,-24011.22737064688,-31845.379691765273,-35891.44776957605,-35308.87190209293,-22125.053063041338,-31530.62242634564
14222.884383545446,5114.123834863167,-23957.225556042857,-31800.698554599116,-35751.12351788563,-35256.479413089684,-21994.764744611355,-31444.590561937162
14322.059073693643,5045.906310785569,-24004.812419988208,-31887.713895763627,-35502.37095384252,-35325.635710434406,-21821.248152404805,-31406.12320972958
14339.471082624326,4997.760653228838,-24073.968717332926,-31955.08205355192,-35615.739001719834,-35395.79783627961,-21939.757101506842,-31500.268757375332
14246.86780534599,5055.04817426779,-24025.66659756501,-31871.419474055707,-35874.59455425675,-35331.60362620397,-22121.543839161855,-31545.933371297524
14205.919409503867,5102.00918936839,-23961.27122178927,-31802.710211600093,-35802.44312315501,-35264.61544807142,-22033.008579374386,-31469.065722115723
14301.316654839118,5058.199770235989,-23996.296405350735,-31871.553584522437,-35524.163904686444,-35306.16734101383,-21830.36766414257,-31400.53527361575
14356.883091555012,5010.679961524005,-24069.274850997313,-31950.455242449672,-35561.31250397116,-35382.319734373064,-21887.431667736968,-31468.55163199325
14261.508197964216,5032.6740780680275,-24034.204963946937,-31908.053983217957,-35836.82010612728,-35351.921361913846,-22083.702335799022,-31545.396929430597
14192.19543840831,5093.58258170874,-23965.11572183558,-31826.82774386737,-35839.63642592865,-35276.66303833283,-22050.845271449718,-31487.483559546898
14273.466381247805,5077.511677445374,-23977.208015585904,-31856.197936081644,-35558.71970161435,-35299.23830023269,-21838.481347379846,-31408.716012086395
14363.186283491408,5017.899574983069,-24032.461527879423,-31933.669082363736,-35506.774247500216,-35364.32658008654,-21825.27146640676,-31449.105614317134
14288.106773866031,5026.102665198167,-24046.90075479755,-31909.953881496655,-35783.51119560137,-35350.021463635145,-22032.181564829538,-31536.344472926197
14206.589961837526,5102.657389957594,-23964.087541590638,-31825.374880477775,-35864.849193674236,-35272.19268944176,-22055.673248252064,-31502.883911476605
14269.890102134956,5089.335750262231,-23963.618154957076,-31844.507973731517,-35597.74584743331,-35278.27236393361,-21853.56877488718,-31416.427363923474
14352.569204875137,5013.697447025472,-24040.843432050162,-31942.453317934673,-35493.65377350495,-35368.1487283884,-21805.333710352625,-31447.250419527343
14310.458518321338,5026.147368687078,-24050.342923443666,-31923.09670723638,-35737.824229934726,-35366.20412662079,-21995.21177950046,-31535.00336825888
14212.490822373727,5089.089881073222,-23975.732800451853,-31828.414717723696,-35874.840423445756,-35279.188785456274,-22067.273803624368,-31519.312443651255
14254.780322883169,5099.148166078111,-23954.27512577476,-31830.694595658137,-35645.735042778855,-35264.25782016013,-21880.65908916701,-31433.995835065347
14364.147408502986,5041.681831083516,-24007.874608978585,-31914.69245132118,-35473.201927328344,-35342.2430565647,-21788.569902011146,-31435.64986415504
14340.611021591547,5028.784874532804,-24043.212716962425,-31927.03061426051,-35684.58237464218,-35361.86788819646,-21963.002915740362,-31522.598150086185
14232.026247027667,5084.977160093446,-23984.405277300513,-31849.939447634155,-35883.848176461244,-35284.48614889218,-22077.913233985095,-31529.348376911687
14242.218642499285,5107.507718504396,-23945.26737275927,-31817.842342596334,-35698.373400971104,-35253.484279332675,-21919.662883241523,-31440.27667525729
14350.334030429607,5049.549645131784,-23995.871722206084,-31913.306643164953,-35474.386569784474,-35326.0380418346,-21778.01987862824,-31422.998776793338
14358.358306689062,5019.7547697728605,-24047.66071410903,-31946.23076274762,-35624.61264426859,-35364.01365566417,-21911.839772682164,-31500.872254475627
14250.712305392302,5075.902351844591,-24002.84546647614,-31868.0220088985,-35871.64412398865,-35305.340326468984,-22081.198940420025,-31542.33474044022
14225.0077992687,5106.278372559354,-23949.424797227955,-31828.794697379435,-35750.22944810742,-35254.08777643296,-21969.171997210025,-31470.786806438784
14325.210669661841,5043.738191573405,-23993.100105893627,-31915.65357633276,-35494.033753160686,-35316.9855853302,-21794.962500925365,-31429.570189663198
14353.977364775821,5000.688731752483,-24064.71509512843,-31972.60582120488,-35586.92760311694,-35376.48592907023,-21894.450115495936,-31509.745897024382
14261.731715408769,5058.222121980443,-24022.023263218794,-31893.68181153319,-35855.327350536274,-35320.383050487406,-22088.12798120117,-31564.127691284146
14214.48012763025,5098.835241655736,-23945.6026489261,-31834.82966838237,-35798.486864386425,-35258.66988404631,-22011.126221552637,-31485.002515912358
14304.445899062861,5048.499113142385,-23983.779428455764,-31901.661384303738,-35524.432125619904,-35299.975907799715,-21812.285102878228,-31417.768468590795
14371.456428939871,5004.5555835432515,-24042.028074506292,-31968.94013511421,-35535.339776914094,-35363.36545507496,-21855.580431888156,-31474.541899507276
14285.245750575752,5042.911177028558,-24026.80653653223,-31914.17836119871,-35819.31869021877,-35334.8893326389,-22065.016277434384,-31552.48243242293
14219.486918388238,5101.428044012552,-23953.850442630108,-31831.40985148071,-35834.02613807037,-35257.1723171678,-22044.452672535503,-31498.99470794138
14292.912398923923,5067.76631686286,-23972.961184139396,-31882.818863727913,-35561.67013188245,-35286.85543380445,-21844.493966638325,-31428.005567551325
14360.79464683469,4985.198972844955,-24060.96000205994,-31980.116007341865,-35509.612919046034,-35373.021408679655,-21840.157728213995,-31480.018076898825
14301.741337983769,5029.522482099829,-24047.772472831308,-31938.430003932717,-35776.91743098706,-35356.458766038275,-22042.597477745712,-31561.28901973832
14225.231316713252,5102.925610891058,-23948.68718966093,-31834.784964893457,-35856.020254614385,-35267.96820973971,-22071.364172859692,-31516.496123849887
14267.565520711605,5079.322168746254,-23968.200262570415,-31872.604116511837,-35612.05096388471,-35279.9263930233,-21882.067249067695,-31432.855896098128
14363.186283491408,5016.580822060207,-24039.882307038584,-31967.062588579967,-35499.95696544134,-35359.99034166221,-21830.635885076033,-31460.639114456073
14330.820957520124,5024.918022742036,-24034.294370924756,-31927.947035783178,-35729.24116006389,-35353.06130088107,-22006.432355217024,-31535.316292681255
14232.428578427862,5092.688511930527,-23971.59772772762,-31840.372901007286,-35879.10960663672,-35274.584326098484,-22083.635280565653,-31521.23469367441
14258.937747351856,5097.784709666337,-23943.658047158486,-31844.127994075778,-35663.79525229875,-35256.52411657859,-21910.252798825837,-31433.481744942874
14368.282481227217,5039.245490937888,-24005.348861855135,-31931.94799804068,-35480.08626462058,-35335.269312294644,-21802.249169617793,-31432.967654820404
14356.12313224353,5028.047266965779,-24039.23410644938,-31945.381396458317,-35674.00999951482,-35364.348931830995,-21966.288622175292,-31527.224961188433
14252.478093204272,5092.53204971934,-23975.911614407494,-31845.558505720917,-35871.10768212172,-35278.27236393361,-22086.250434666927,-31523.626330331128
14239.469377931284,5102.970314379968,-23937.891297089016,-31828.235903768054,-35705.88358710809,-35254.75832876663,-21939.95826720694,-31436.655692655528
14350.64695485198,5042.66530783955,-23988.763867469297,-31918.626358345315,-35482.18732859938,-35331.782440159615,-21800.483381805825,-31421.5682651482
14361.50990265726,5012.781025502804,-24040.262286694324,-31952.958637828666,-35621.72926923386,-35373.55785054658,-21929.00591242384,-31502.2357108874
14247.516005935195,5055.517560901351,-23999.403297830024,-31881.36600033832,-35872.96287691151,-35319.31016675355,-22096.196960949535,-31551.67776962254
14223.487880645738,5096.443604999019,-23954.27512577476,-31834.762613149003,-35761.24885812389,-35269.24225917367,-21991.92607306553,-31480.3310013212
14325.50124233976,5047.649746853083,-23987.042783146237,-31907.27167216202,-35499.129950896495,-35318.080820808515,-21815.906085479986,-31421.5682651482
14373.021051051743,5010.925830713014,-24034.89786802505,-31964.916821112256,-35570.20849826437,-35371.702655756795,-21895.52299922979,-31487.99764966937
14273.511084736716,5049.437886409508,-24009.305120623725,-31893.815921999925,-35839.457611973005,-35324.40636448936,-22073.822864749774,-31546.313350953264
14219.86689804398,5088.91106711758,-23942.182832024435,-31825.352528733318,-35795.02234399585,-35261.55325908104,-22013.94254135401,-31481.47094028842
14306.077576408099,5046.085124741212,-23970.726009693863,-31896.609890056836,-35530.48944836729,-35311.97879457221,-21829.428890875446,-31428.36319546261
14383.146391289996,5015.798511004271,-24034.875516280594,-31957.876021608834,-35532.25523617926,-35373.66960926886,-21861.28012672426,-31477.380571053098
14299.550867027148,5042.486493883907,-24022.067966707706,-31905.260015161042,-35806.62289936816,-35337.90681814037,-22063.719876255975,-31541.708891595474
14219.397511410418,5087.547610705807,-23961.293573533723,-31832.706252659114,-35838.31767300578,-35261.32974163649,-22056.388504074635,-31494.52435905032
14286.63155873198,5053.125924244634,-23972.69296320593,-31879.756674737535,-35572.04134130971,-35286.766026826626,-21858.597917389623,-31418.148448246535
14368.975385305332,4997.425377062008,-24035.367254658613,-31956.13258554132,-35510.685802779895,-35367.791100477116,-21843.51048988229,-31455.520564975806
14317.141689913475,5026.057961709257,-24030.159298200524,-31911.473800119616,-35766.50151807088,-35346.176963588834,-22039.35647479969,-31533.304635680277
14228.449967914818,5088.620494439661,-23959.103102577104,-31823.34087173234,-35864.58097274077,-35260.72624453619,-22083.076486954273,-31500.067591675233
14270.49359923525,5068.056889540779,-23955.951506608904,-31854.02981686948,-35615.13550461954,-35269.130500451385,-21890.717374171898,-31420.830657581173
14367.433114937916,5004.287362609788,-24023.476126608388,-31946.09665228089,-35480.64505823196,-35354.4471090373,-21819.817640759666,-31443.18240203648
14322.50610858275,5000.353455585654,-24055.908507813037,-31944.71084412466,-35721.529808226805,-35371.23326912323,-22014.613093687665,-31538.71375783846
14225.834813813546,5075.097689044201,-23983.779428455764,-31845.11147083181,-35880.18249037057,-35285.760198326134,-22104.288292442357,-31523.782792542315
14256.68022116187,5086.430023483041,-23948.59778268311,-31833.376804992775,-35660.95658075292,-35263.09552944845,-21923.23916235437,-31431.2689222418
14365.08618177011,5025.722685542427,-24013.641359048055,-31925.60010261537,-35471.92787789439,-35344.500582754685,-21810.742832510812,-31431.78301236427
14355.519635143237,5016.558470315751,-24047.86187980913,-31942.073338278933,-35663.92936276548,-35376.48592907023,-21973.977622267917,-31525.034490231814
14249.415904213894,5082.67493041455,-23983.801780200218,-31854.432148269672,-35875.91330717961,-35305.85441659146,-22107.70810934402,-31539.630179361127
14241.861014588001,5111.396922039619,-23938.517145933765,-31830.068746813387,-35715.60659594615,-35264.61544807142,-21960.186595938994,-31449.26207652832
14349.350553673572,5053.416496922552,-23993.860065205106,-31924.84014330389,-35482.03086638819,-35327.84853313548,-21803.322053351647,-31415.577997634173
14368.573053905136,5022.906365741059,-24043.749158829352,-31953.51743144005,-35612.609757496095,-35373.35668484648,-21923.574438521202,-31495.306670106256
14266.15736081092,5080.305645502287,-24001.258492619814,-31860.44476752815,-35863.6645512181,-35305.74265786918,-22092.955958003517,-31538.154964227077
14230.19340398233,5107.954753393502,-23952.934021107438,-31819.474019941572,-35767.26147738236,-35253.8195554995,-21998.028099301828,-31461.622591212108
14330.530384842205,5061.57488364874,-23987.400411057522,-31905.863512261334,-35508.785904501194,-35317.99141383069,-21820.108213437583,-31416.516770901297
14377.334937731617,5021.654668051561,-24037.781243059784,-31956.646675663793,-35568.26389649676,-35379.79398724961,-21891.678499183476,-31486.835358957695
14283.010576130222,5068.235703496422,-24010.243893890845,-31887.55743355244,-35838.63059742816,-35332.073012837536,-22081.824789264774,-31541.641836362105
14220.76096782219,5111.195756339522,-23951.101178062105,-31823.83261011036,-35815.22832098345,-35256.39000611186,-22036.11547185367,-31481.582699010694
14314.21361138983,5084.463069970974,-23961.785311911743,-31871.73239847808,-35532.478753623815,-35290.90109955086,-21834.256867677792,-31417.746116846338
14384.331033746128,5034.641031580095,-24033.17678370199,-31944.46497493565,-35523.51570409724,-35364.55009753109,-21859.871966823575,-31477.537033264285
14301.741337983769,5062.871284827147,-24031.23218193438,-31897.191035412674,-35801.52670163235,-35334.06231809405,-22063.876338467162,-31540.278379950334
14217.028226498154,5108.357084793697,-23960.779483411254,-31826.559522933905,-35849.22532429997,-35263.09552944845,-22069.754847258908,-31494.747876494872
14289.581989000082,5087.279389772343,-23957.963163609882,-31866.25622108653,-35578.903326857486,-35284.08381749199,-21864.007039547807,-31416.74028834585
14381.291196500206,5033.456389123963,-24040.061120994225,-31947.03542554801,-35499.88991020798,-35360.21385910676,-21835.016826989275,-31451.407843996032
14321.12030042652,5036.6079850921615,-24040.284638438778,-31929.444602661682,-35755.86208771016,-35354.357702059475,-22028.582933972233,-31539.652531105585
14226.371255680473,5106.591296981728,-23966.345067780625,-31843.658607442216,-35866.726740208476,-35283.547375625065,-22081.84714100923,-31523.872199520138
14267.654927689426,5098.812889911281,-23958.343143265625,-31856.041473870457,-35627.38426058105,-35274.47256737621,-21893.84661839564,-31432.40886120902
14376.507923186771,5044.207578206966,-24015.250684648836,-31951.103443038875,-35477.24759307475,-35340.81254491956,-21813.51444882327,-31431.045404797245
14344.880204782512,5040.89952002758,-24034.361426158124,-31925.443640404184,-35704.63188941859,-35349.30620781257,-21995.480000433923,-31511.265815647344
14236.67540987437,5099.461090500485,-23973.542329495234,-31835.05318582692,-35872.47113853349,-35275.858375532436,-22082.674155554076,-31512.9868999704
14250.667601903393,5106.233669070443,-23954.02925658575,-31833.73443290406,-35674.79231057076,-35265.12953819389,-21919.282903585783,-31435.225181010388
14365.197940492386,5048.499113142385,-24009.148658412538,-31918.872227534324,-35472.576078483595,-35339.113812340955,-21796.01303291476,-31422.663500626506
14357.419533421938,5023.956897730458,-24042.028074506292,-31941.693358623193,-35651.881772504064,-35365.98060917624,-21948.004895210852,-31502.32511786522
14247.381895468461,5075.835296611225,-23983.5112075223,-31857.69550296015,-35873.70048447853,-35294.70089610826,-22091.503094613923,-31522.2405221749
14231.512156905193,5097.114157332678,-23945.289724503724,-31829.845229368835,-35726.73776468489,-35253.685445032774,-21954.91158424754,-31437.885038600572
14349.350553673572,5056.1434097461,-23986.215768601392,-31897.906291235246,-35476.286468063176,-35316.51619869664,-21790.73802122331,-31400.98230850486
14371.65759463997,5022.66049655205,-24040.284638438778,-31949.31530348245,-35597.65644045549,-35373.80371973559,-21913.560857005225,-31489.51756829233
14267.073782333588,5075.075337299745,-23999.157428641014,-31866.815014697913,-35855.461461003004,-35307.46374219224,-22092.03953648085,-31532.879952535626
14226.952401036311,5105.831337670247,-23946.049683815203,-31819.831647852858,-35769.541355316804,-35251.74084326516,-21999.056279546774,-31459.23095455539
14310.21264913233,5044.1405229736,-23999.023318174284,-31907.159913439744,-35510.86461673553,-35314.66100390685,-21816.956617469386,-31412.828733066173
14354.312640942651,4998.095929395668,-24061.675257882507,-31970.907088626278,-35564.397044706,-35385.94071697482,-21888.32573751518,-31483.013210655834
14272.929939380878,5056.47868591293,-24019.65397830653,-31891.84896848786,-35830.583969424246,-35328.25086453568,-22075.968632217486,-31532.365862413153
14220.023360255165,5106.233669070443,-23946.809643126686,-31823.519685687985,-35809.685088358536,-35257.08291018998,-22025.543096726313,-31471.166786094524
14302.300131595151,5066.872247084648,-23970.569547482675,-31880.024895671,-35539.07251823813,-35298.299526965566,-21840.761225314287,-31411.822904565684
14369.668289383448,5008.891821967581,-24058.4789584254,-31971.644696193303,-35528.88012276651,-35380.643353538915,-21872.32188848518,-31472.239669828377
14296.73454722578,5041.681831083516,-24041.67044659501,-31909.618605329826,-35800.2526521984,-35355.16236485987,-22064.88216696765,-31547.207420731476
14220.269229444175,5099.304628289298,-23956.242079286825,-31821.619787409283,-35847.39248125464,-35269.93516325178,-22064.83746347874,-31498.033582929802
14281.40125052944,5078.539857690318,-23975.822207429675,-31862.299962317942,-35592.4484839974,-35290.65523036185,-21873.28301349676,-31422.283520970766
14380.08420229962,5022.727551785416,-24032.461527879423,-31944.912009824755,-35494.99487817226,-35366.181774876335,-21828.17719318595,-31443.003588080835
14338.621716335025,5048.454409653475,-24027.18651618797,-31918.536951367492,-35741.66872998104,-35352.547210758596,-22015.998901843894,-31521.1899901855
14238.798825597623,5105.116081847677,-23961.673553189463,-31817.596473407328,-35866.14559485264,-35268.39289288436,-22081.198940420025,-31501.609862042653
14272.505256236227,5087.748776405904,-23957.02439034276,-31845.11147083181,-35636.928455463465,-35270.91864000781,-21904.57545573419,-31418.573131391186
14374.898597585989,5031.109455956156,-24030.85220227864,-31934.250227719574,-35479.99685764276,-35353.3965770479,-21814.27440813475,-31422.149410504033
14352.926832786421,5032.338801901198,-24041.46928089491,-31919.1851519567,-35691.466711934416,-35363.90189694189,-21981.107828749162,-31509.120048179633
14245.951383823322,5098.231744555444,-23972.625907972564,-31829.95698809111,-35873.87929843418,-35286.050771004055,-22091.36898414719,-31513.52334183733
14255.62968917247,5097.851764899703,-23942.875736102553,-31824.19023802164,-35678.27918270578,-35261.530907336586,-21932.269267114316,-31429.212561751912
14354.849082809578,5029.94716524448,-24017.396452116544,-31928.349367183375,-35480.30978206513,-35338.01857686265,-21810.586370299625,-31413.655747611017
14363.298042213684,5025.968554731436,-24051.28169671079,-31940.396957444784,-35642.874019488576,-35365.48887079822,-21952.85522375765,-31493.94321369448
14260.43531423036,5090.028654340345,-23992.541312282243,-31835.1649445492,-35869.34189430975,-35297.47251242072,-22099.884998784662,-31530.91299902356
14239.15645350891,5109.072340616267,-23958.857233388095,-31812.63438613825,-35741.378157303116,-35259.921581735805,-21985.10879100666,-31459.54387897776
14345.84132979409,5047.605043364173,-24001.347899597633,-31892.78774175498,-35487.5740990131,-35306.92730032531,-21809.692300521412,-31391.54987234472
14368.684812627413,5007.126034155612,-24059.305972970247,-31942.22980049012,-35591.93439387493,-35362.15846087438,-21916.33247331768,-31467.031713370292
14263.653965431926,5052.298909699787,-24020.99508297385,-31873.49818629005,-35860.065920360794,-35314.61630041794,-22099.773240062386,-31526.15207745458
14215.173031708364,5091.593276452217,-23966.188605569438,-31816.14361001773,-35787.62391658115,-35255.60769505593,-22012.176753542037,-31452.950114363448
14312.425471833405,5042.844121795192,-23990.976690170373,-31881.701276505148,-35518.68772729489,-35299.50652116615,-21824.287989650726,-31392.265128167288
14361.800475335178,5004.354417843154,-24066.033848051295,-31951.975161072634,-35557.289189969204,-35371.345027845506,-21881.910786856508,-31464.50596624684
14278.428468516884,5050.890749799103,-24045.202022218946,-31898.710954035636,-35834.09319330373,-35339.538495485605,-22087.27861491187,-31539.67488285004
14222.48205214525,5100.6457329566165,-23957.449073487413,-31819.742240875035,-35822.29147223133,-35257.194668912256,-22044.49737602441,-31474.072512873714
14294.298207080152,5053.595310878195,-23981.320736565678,-31867.127939120288,-35554.33875970111,-35290.76698908413,-21845.79036781673,-31399.820017793183
14373.646899896492,5015.329124370709,-24061.205871248945,-31953.249210506587,-35524.8344570201,-35373.13316740193,-21856.69801911092,-31448.010378838826
14298.612093760026,5031.243566422888,-24058.501310169853,-31914.915968765734,-35797.011649252374,-35347.04868162259,-22062.669344266575,-31532.05293799078
14207.640493826926,5083.837221126226,-23997.36928908459,-31835.63433118276,-35868.87250767619,-35270.91864000781,-22085.311661399803,-31497.094809662678
14276.68503244937,5074.650654155094,-23980.27020457628,-31862.545831506948,-35604.65253647,-35281.379256412896,-21875.249967008825,-31412.784029577262
14375.815019108657,5026.259127409355,-24038.921182027007,-31941.671006878736,-35492.424427559905,-35355.967027660256,-21820.68935879342,-31431.760660619817
14318.147518413964,5017.206670904955,-24058.836586336685,-31941.55924815646,-35743.747442215375,-35365.533574287125,-22020.715119923963,-31523.00048148638
14215.463604386283,5074.963578577469,-23992.831884960164,-31850.9676278791,-35880.45071130404,-35289.09060824998,-22094.27471092638,-31510.259987146856
14257.239014773253,5079.702148401993,-23967.46265500339,-31843.993883609044,-35649.49013584735,-35278.83115754499,-21913.00206339384,-31421.32239595919
14355.765504332247,5011.574031302218,-24039.167051216013,-31945.26963773604,-35488.19994785785,-35361.33144632953,-21822.432794860935,-31429.145506518547
14331.960896487344,5002.745092242371,-24065.206833506447,-31947.527163926028,-35696.31704048122,-35381.202147150296,-21995.278834733825,-31518.12780119512
14222.727921334259,5066.805191851281,-24010.55681831322,-31853.11339534681,-35891.04543817585,-35303.35102121246,-22115.754737347932,-31528.364900155655
14233.657924372903,5082.00437808089,-23972.290631805736,-31842.339854519352,-35707.470560964415,-35272.3267999085,-21958.286697660293,-31440.27667525729
14334.97838198881,5020.313563384243,-24026.515963854312,-31931.45625966266,-35491.48565429278,-35346.0428531221,-21821.494021593815,-31420.338919203154
14347.36124841705,5011.126996413112,-24066.816159107228,-31953.383320973317,-35644.99743521183,-35378.09525467101,-21959.225470927417,-31494.636117772596
14236.273078474174,5060.814924337259,-24024.101975453137,-31874.861642701824,-35883.62465901669,-35315.89034985189,-22114.86066756972,-31528.67782457803
14225.276020202164,5095.683645687538,-23958.857233388095,-31823.050299054423,-35746.45200329447,-35262.916715492815,-21983.343003194692,-31438.108556045125
14310.659684021437,5021.766426773837,-24032.282713923778,-31924.37075667033,-35504.248500376765,-35333.391765760396,-21821.426966360446,-31395.237910179843
14345.528405371715,4981.913266410025,-24080.741295902884,-31970.12477757034,-35607.53591150474,-35386.43245535284,-21927.798918223252,-31480.778036210304
14261.284680519662,5045.5263311298295,-24022.783222530274,-31882.59534628336,-35865.83267043027,-35326.57448370153,-22105.584693620767,-31529.23661818941
14209.495688616717,5084.887753115625,-23964.13224507955,-31819.988110064045,-35809.64038486962,-35264.01195097112,-22035.176698586547,-31458.873326644105
14303.797698473658,5036.7197438144385,-23982.281861577256,-31875.889822946767,-35524.61093957555,-35297.517215909626,-21828.847745519608,-31383.570299574174
14366.069658526143,5005.114377154634,-24048.28656295378,-31940.016977789044,-35542.492335139796,-35364.505394042186,-21867.739780871845,-31445.46227997092
14283.9717011418,5046.66627009705,-24020.726862040385,-31882.505939305538,-35816.63648088413,-35327.13327731291,-22066.446789079524,-31515.132667438113
14208.95924674979,5088.262866528376,-23954.520994963765,-31812.701441371613,-35828.32644323426,-35253.484279332675,-22041.815166689776,-31454.291219030765
14278.584930728071,5061.150200504088,-23974.257585317802,-31870.50305253304,-35567.03455055172,-35279.70287557875,-21852.38413243105,-31379.63639255004
14367.790742849202,5015.127958670611,-24038.89883028255,-31937.692396365692,-35517.54778832767,-35350.155574101875,-21846.19269921693,-31420.98711979236
14305.809355474634,5034.8421972801925,-24038.429443648987,-31907.428134373207,-35771.62006755115,-35335.828105906025,-22038.685922466033,-31504.470885332932
14203.930104247345,5077.377566978642,-23975.129303351558,-31823.1620577767,-35858.70246394903,-35265.93420099428,-22071.386524604146,-31477.64879198656
14258.624822929482,5068.19100000751,-23968.624945715066,-31845.35734002082,-35606.19480683742,-35276.79714879956,-21877.686307154454,-31397.45073288092
14355.966670032343,5004.935563198992,-24043.972676273905,-31933.75848934156,-35496.268927606216,-35359.56565851756,-21826.970198985364,-31422.529390159776
14319.667437036926,5014.077426681212,-24052.801615333752,-31919.811000801445,-35733.9350263995,-35358.64923699489,-22017.608227444678,-31510.729373780418
14216.894116031423,5077.332863489731,-23983.868835433583,-31831.275741013975,-35883.37878982768,-35281.73688432418,-22103.640091853154,-31503.040373687792
14253.8639013605,5083.591351937217,-23953.582221696644,-31827.587703178848,-35657.067377217696,-35261.41914861431,-21922.68036874299,-31414.08043075567
14348.724704828825,5020.782950017804,-24027.387681888067,-31921.777954313515,-35481.874404177004,-35347.85334442298,-21816.8001552582,-31416.136791245557
14337.884108768,5016.893746482581,-24045.582001874685,-31931.612721873847,-35675.97695302689,-35369.95921968928,-21976.883349047108,-31504.76145801085
14233.881441817457,5077.064642556267,-23990.84257970364,-31836.081366071867,-35876.31563857981,-35294.45502691925,-22098.521542372888,-31509.790600513294
14234.328476706563,5094.320189275764,-23958.20903279889,-31823.20676126561,-35706.10710455264,-35265.822442272,-21952.162319679537,-31426.70916637292
14340.141634957987,5032.830540279215,-23991.289614592748,-31917.17349495572,-35476.44293027436,-35335.00109136118,-21802.427983573438,-31398.50126487032
14341.750960558767,5010.769368501827,-24058.30014446976,-31963.061626322466,-35630.1111734046,-35386.521862330665,-21944.428616098,-31492.982088682904
14244.833796600557,5074.695357644005,-24006.801725244728,-31861.62940998428,-35867.352589053226,-35318.2372830197,-22100.108516229215,-31530.689481579007
14230.998066782722,5107.172442337566,-23939.92530583445,-31811.717964615582,-35744.730918971414,-35260.21215441372,-21976.816293813743,-31444.523506703797
14335.917155255933,5063.966520305457,-23979.912576664996,-31889.479683575595,-35488.33405832459,-35312.67169865032,-21798.851704460587,-31401.40699164951
14361.353440446073,5014.747979014871,-24046.43136816399,-31952.913934339755,-35574.432977966426,-35373.08846391302,-21890.829132894174,-31480.50981527684
14259.54124445215,5050.533121887818,-24013.641359048055,-31885.70223876265,-35839.6587776731,-35320.42775397632,-22072.03472519335,-31531.494144379398
14214.9048107749,5109.698189461015,-23955.616230442076,-31813.014365793988,-35789.70262881549,-35251.78554675407,-22001.06793654775,-31461.622591212108
14297.74037572627,5060.47964817043,-23990.619062259088,-31882.1259596498,-35524.432125619904,-35300.08766652199,-21811.435736588926,-31404.759753317805
14357.46423691085,5008.936525456492,-24061.295278226768,-31959.03831232051,-35541.151230472475,-35375.07776916955,-21853.389960931538,-31468.216355826422
14279.702517950836,5042.598252606184,-24039.792900060762,-31908.344555895874,-35819.4528006855,-35336.878637895425,-22061.439998321533,-31549.844926577203
14208.311046160585,5100.8245469122585,-23972.625907972564,-31829.800525879924,-35837.82593462776,-35255.45123284474,-22041.010503889385,-31493.47382706092
14288.464401777317,5070.068546541756,-23972.670611461475,-31872.648820000748,-35560.3960824485,-35272.9750004977,-21830.211201931383,-31407.73253533036
14361.644013123992,5006.164909144033,-24054.254478723346,-31965.073283323443,-35498.14647414046,-35356.61522824946,-21816.911913980475,-31451.832527140683
14306.368149086018,5039.178435704522,-24051.61697287762,-31920.280387435007,-35754.76685223184,-35341.72896644223,-22008.73458489592,-31534.82455430324
14220.470395144272,5099.81871841177,-23977.789160941742,-31831.052223569422,-35853.47215574648,-35260.54743058055,-22051.851099950207,-31504.62734754412
14263.050468331632,5081.24441876941,-23959.147806066016,-31861.718816962104,-35602.37265853556,-35269.08579696248,-21861.056609279705,-31421.009471536814
14360.79464683469,5022.794607018782,-24028.304103410734,-31946.27546623653,-35472.79959592815,-35347.20514383377,-21791.654442745978,-31438.689701400963
14328.317562141128,5030.684772811505,-24050.52173739931,-31941.17926850072,-35708.49874120936,-35346.244018822195,-21977.240976958394,-31526.219132687944
14226.348903936017,5089.358102006687,-23984.852312189618,-31855.125052347787,-35868.55958325382,-35267.677637061795,-22078.18145491856,-31520.63119657412
14250.377029225474,5096.354198021198,-23959.17015781047,-31853.314561046907,-35657.80498478472,-35252.36669210991,-21905.80480167923,-31429.88311408557
14353.709143842358,5032.808188534759,-24021.062138207217,-31939.100556266378,-35466.719921436306,-35334.442297749796,-21789.486323533813,-31428.899637329538
14345.438998393895,5023.889842497092,-24050.454682165942,-31955.55144018548,-35653.66991206049,-35359.16332711736,-21949.457758600445,-31514.90914999356
14253.43921821585,5091.325055518753,-23984.293518578233,-31860.623581483793,-35853.583914468756,-35282.0274570021,-22075.633356050654,-31527.04614723279
14243.403284955417,5105.451358014508,-23948.195451282914,-31839.25531378452,-35693.143092768565,-35251.85260198743,-21931.196383380462,-31445.41757648201
14339.716951813336,5035.602156591673,-24007.13700141156,-31933.467916663638,-35472.53137499468,-35322.551169699575,-21788.65930898897,-31420.56243664771
14353.195053719886,4999.504089296352,-24060.3788567041,-31977.232632307132,-35609.256995827796,-35369.467481311265,-21919.3723105636,-31499.955832952957
14249.974697825277,5056.925720802035,-24017.37410037209,-31901.281404647998,-35856.33317903676,-35315.33155624051,-22091.547798102834,-31544.838135819216
14223.33141843455,5099.774014922859,-23961.31592527818,-31838.897685873235,-35755.79503247679,-35265.75538703864,-21994.943558566996,-31474.117216362625
14327.222326662819,5051.5165986438515,-23994.485914049856,-31913.351346653864,-35487.01530540172,-35318.59491093098,-21809.044099932205,-31425.41276519451
14362.068696268643,5002.253353864355,-24063.91043232804,-31978.12670208534,-35560.95487605988,-35387.88531874243,-21896.595882963644,-31503.219187643434
14267.744334667246,5047.5826916197175,-24031.23218193438,-31904.50005584956,-35835.56840843778,-35328.31791976904,-22089.692603313044,-31548.302656209788
14221.05154050011,5105.429006270052,-23961.762960167285,-31826.783040378457,-35800.36441092067,-35251.20440139823,-22032.472137507455,-31476.41944604152
14303.59653277356,5066.760488362371,-23990.440248303446,-31894.844102244868,-35532.09877396808,-35299.7300386107,-21838.347236913116,-31418.237855224357
14368.438943438405,5003.7956242317705,-24060.356504959644,-31968.627210691837,-35527.56136984365,-35369.66864701136,-21867.09158028264,-31464.997704624857
14282.228265074285,5030.461255366952,-24064.29041198378,-31922.85083804737,-35805.7511813344,-35342.71244319826,-22072.548815315822,-31537.842039804706
14221.498575389216,5098.835241655736,-23978.30325106421,-31831.8121828809,-35839.167039295084,-35258.35695962393,-22064.301021611813,-31489.74108573688
14290.45370703384,5072.1472587761,-23965.093370091126,-31869.02783739899,-35562.00540804928,-35277.44534938876,-21857.010943533296,-31411.621738865586
14367.544873660192,5001.426339319509,-24047.95128678695,-31963.08397806692,-35495.844244461565,-35360.370321317954,-21838.79427180222,-31449.03855908377
14307.865715964523,5021.498205840374,-24049.6276676211,-31930.94216954019,-35753.604561520166,-35349.32855955703,-22040.965800400474,-31525.503876865376
14228.29350570363,5096.86828814367,-23975.01754462928,-31835.96960734959,-35858.277780804376,-35261.08387244748,-22086.920987000583,-31493.384420083097
14267.63257594497,5078.472802456952,-23967.59676547012,-31864.51278501902,-35613.727344718856,-35263.81078527102,-21890.873836383085,-31408.40308766402
14366.807266093168,5019.486548839396,-24029.399338889045,-31941.402785945273,-35466.80932841412,-35344.344120543494,-21800.952768439387,-31419.0648697692
14335.447768622373,5027.8013977767705,-24049.650019365552,-31936.17247774273,-35694.28303173579,-35356.36935906045,-21985.801695084774,-31510.304690635767
14226.013627769189,5081.467936213963,-23990.931986681462,-31850.29707554544,-35866.27970531937,-35283.614430858426,-22090.43021088007,-31508.29303363479
14252.656907159915,5091.660331685583,-23961.539442722733,-31839.8141073959,-35663.45997613192,-35263.609619570925,-21922.68036874299,-31422.104707015125
14354.871434554034,5027.443769865486,-24019.162239928515,-31936.753623098568,-35469.80446217114,-35338.0409286071,-21802.092707406606,-31415.086259256157
14347.495358883782,5015.127958670611,-24054.43329267899,-31952.198678517187,-35645.7126910344,-35361.73377772973,-21954.71041854744,-31496.491312562386
14247.784226868658,5073.600122165695,-23993.837713460653,-31862.07644487339,-35863.03870237335,-35288.26359370513,-22096.08520222726,-31506.840170245192
14235.758988351703,5090.475689229452,-23954.543346708222,-31829.129973546267,-35715.91952036852,-35254.937142722265,-21965.886290775095,-31424.183419249468
14347.115379228042,5045.638089852106,-23997.928082695973,-31908.50101810706,-35474.96771514031,-35320.65127142087,-21809.6475970325,-31399.97648000437
14355.854911310067,5002.722740497916,-24062.591679405177,-31958.904201853777,-35601.45623701289,-35370.8979929564,-21932.6268950256,-31483.706114733952
14250.86876760349,5048.119133486644,-24023.297312652747,-31885.00933468453,-35855.97555112548,-35306.16734101383,-22103.99771976444,-31517.189027928
14224.493709146227,5100.265753300876,-23955.07978857515,-31835.187296293654,-35761.69589301299,-35250.64560778685,-22005.605340672177,-31444.009416581324
14317.49931782476,5042.017107250346,-23997.771620484786,-31914.84891353237,-35496.470093306314,-35307.173169514324,-21821.806946016186,-31396.199035191425
14356.234890965807,4993.849097949159,-24075.242766766878,-31964.46978622315,-35560.06080628167,-35377.73762675973,-21898.875760898085,-31468.886908160082
14272.05822134712,5041.503017127874,-24024.32549289769,-31899.135637180287,-35832.17094328057,-35332.56475121555,-22098.298024928336,-31534.131650225125
14214.211906696786,5083.0325583258345,-23949.98359083934,-31833.0638805704,-35803.91833828906,-35253.79720375505,-22046.88901268113,-31469.445701771463
14303.529477540193,5062.33484296022,-23970.815416671685,-31887.825654485903,-35527.96370124385,-35287.4812826492,-21846.684437594944,-31397.294270669732
14366.583748648614,4998.162984629033,-24048.5771356317,-31967.75549265808,-35514.440895848384,-35365.6453330094,-21865.50460642631,-31448.03273058328
14288.643215732958,5021.587612818195,-24039.61408610512,-31922.426154902718,-35782.43831186752,-35343.85238216548,-22065.284498367848,-31530.28715017881
14209.518040361172,5082.250247269899,-23972.827073672663,-31841.31167427441,-35829.7569548794,-35268.147023695354,-22062.46817856648,-31487.595318269174
14281.311843551619,5070.247360497398,-23961.83001540065,-31863.88693617427,-35560.8431173376,-35274.092587720465,-21859.246117978826,-31396.579014847164
14369.757696361268,5007.8412899781815,-24034.763757558318,-31955.350274485383,-35474.20775582883,-35352.1448793584,-21831.440547876424,-31432.319454231198
14303.551829284648,5008.042455678279,-24058.993048547873,-31948.51064068206,-35741.35580555866,-35362.82901320804,-22041.7034079675,-31531.695310079496
14197.783374522136,5059.0938400142,-24000.207960630414,-31860.64593322825,-35864.849193674236,-35290.252898961655,-22095.973443504983,-31510.75172552487
14253.036886815655,5069.2415319969095,-23965.98743986934,-31858.88014541628,-35616.029574397755,-35265.59892482745,-21895.992385863352,-31415.063907511703
14359.587652634104,5018.570127316729,-24027.27592316579,-31944.733195869114,-35455.119366064,-35336.36454777295,-21804.439640574416,-31415.39918367853
14315.889992223978,5001.873374208614,-24060.468263681923,-31950.499945938584,-35685.54349965376,-35361.487908540716,-21992.35075621018,-31513.94802498198
14221.163299222388,5071.096726786701,-23990.12732388107,-31849.0677296004,-35863.75395819592,-35280.70870407924,-22097.493362127945,-31516.205551171966
14240.00581979821,5078.830430368237,-23955.035085086238,-31837.73539516156,-35667.483290133874,-35257.41818635681,-21930.7269967469,-31422.194113992944
14335.380713389006,5018.346609872176,-24028.84054527766,-31930.673948606727,-35474.02894187319,-35331.156591314866,-21806.853628975587,-31407.68783184145
14338.21938493483,5004.577935287707,-24066.324420729212,-31948.84591684889,-35642.85166774412,-35360.169155617856,-21951.91645049053,-31490.076361903713
14246.130197778964,5069.688566886016,-23992.02722215977,-31857.002598882034,-35862.882240162166,-35289.51529139463,-22101.76254531891,-31516.607882572163
14228.58407838155,5091.034482840834,-23950.60943968409,-31829.711118902105,-35723.16148557204,-35256.010026456126,-21974.5364158793,-31438.622646167594
14326.372960373517,5030.6177175781395,-24003.337204854157,-31912.211407686642,-35478.40988378643,-35320.27129176513,-21810.85459123309,-31405.184436462456
14344.991963504788,4989.825783947204,-24058.121330514114,-31962.74870190009,-35592.33672527513,-35374.13899590242,-21924.58026702169,-31489.1822921255
14256.926090350878,5056.702203357483,-24008.74632701234,-31876.918003191713,-35848.063033588296,-35312.38112597241,-22102.65661509712,-31535.472754892442
14218.637552098937,5096.510660232385,-23948.48602396083,-31822.893836843235,-35766.88149772662,-35252.03141594308,-22009.561599440767,-31457.822794654705
14310.50322181025,5054.019994022846,-23994.396507072033,-31891.424285343208,-35504.516721310225,-35301.27230897812,-21826.7019780519,-31404.782105062262
14366.851969582078,5009.987057445891,-24044.91144954103,-31952.198678517187,-35545.621579363535,-35362.33727483002,-21883.7659816463,-31465.444739513965
14286.9221314099,5064.1453342611,-24000.789105986252,-31877.476796803094,-35800.36441092067,-35310.81650386054,-22052.968687172972,-31510.304690635767
14220.649209099915,5110.8604801726915,-23937.511317433276,-31805.370069190274,-35792.31778291676,-35241.45904081572,-22014.79190764331,-31448.256248027832
14295.326387325096,5072.415479709563,-23964.646335202022,-31868.15611936523,-35530.75766930076,-35280.48518663469,-21831.820527532163,-31385.514901341787
14367.678984126924,5011.506976068852,-24039.278809938292,-31957.876021608834,-35510.90932022445,-35361.59966726299,-21854.03816152074,-31441.237800268867
14297.0251199037,5043.067639239745,-24030.293408667258,-31898.46508484663,-35775.352808875185,-35339.44908850778,-22053.54983252881,-31526.15207745458
14214.323665419062,5097.069453843767,-23958.432550243444,-31822.692671143137,-35836.797754382824,-35259.74276778016,-22062.155254144105,-31487.66237350254
14277.020308616198,5075.231799510932,-23955.906803119997,-31850.609999967815,-35575.10353030009,-35268.61641032892,-21865.348144215124,-31398.657727081507
14365.26499572575,5012.691618524983,-24030.427519133988,-31943.302684223974,-35471.61495347202,-35346.244018822195,-21818.47653609235,-31421.5682651482
14311.330236355096,5029.008391977357,-24049.068874009714,-31931.74683234058,-35724.61434896164,-35351.78725144712,-22020.26808503486,-31516.697289549982
14219.710435832792,5094.253134042398,-23974.905785907005,-31835.209648038108,-35856.22142031448,-35272.147985952855,-22093.872379526187,-31506.99663245638
14260.278852019173,5092.822622397259,-23951.950544351406,-31830.448726469127,-35622.39982156752,-35257.59700031245,-21903.681385955977,-31415.153314489522
14357.419533421938,5023.129883185611,-24021.397414374045,-31922.09087873589,-35461.802537656135,-35334.6881669388,-21814.07324243465,-31416.69558485694
14340.275745424718,5017.273726138321,-24050.208812976936,-31932.484439907606,-35673.38415067007,-35355.676454982335,-21999.056279546774,-31512.316347636744
14232.115654005487,5067.721613373949,-23979.80081794272,-31846.094947587844,-35858.59070522674,-35281.49101513517,-22111.172629734592,-31518.217208172944
14243.112712277498,5087.502907216895,-23943.680398902943,-31819.585778663848,-35671.14897622454,-35255.94297122276,-21945.90383123205,-31426.731518117373
14348.680001339913,5031.780008289816,-24005.2147513884,-31902.577805826404,-35459.567363210605,-35324.339309256,-21815.682568035434,-31403.195131205935
14343.36028615955,5004.667342265528,-24069.476016697412,-31934.65255911977,-35625.84199021364,-35363.49956554169,-21964.746351807877,-31494.032620672304
14248.320668735585,5060.345537703698,-23990.976690170373,-31849.268895300498,-35848.7112341775,-35291.70576235125,-22104.891789542653,-31518.440725617496
14227.064159758587,5087.257038027888,-23950.207108283892,-31815.137781517242,-35721.84273264918,-35252.25493338763,-21988.081573019215,-31443.785899136772
14325.098910939565,5030.707124555961,-24003.068983920693,-31900.11911393632,-35481.78499719918,-35322.50646621066,-21829.205373430894,-31410.727669087373
14364.102705014075,5006.030798677301,-24049.448853665453,-31943.8391260909,-35573.717722143854,-35362.29257134111,-21923.015644909818,-31483.974335667415
14263.072820076088,5048.454409653475,-24014.356614870623,-31862.657590229228,-35837.647120672125,-35309.341288726486,-22102.254283696926,-31535.986845014915
14222.616162611981,5093.560229964284,-23954.632753686044,-31804.744220345525,-35777.297410642794,-35249.63977928636,-22033.12033809666,-31465.489443002876
14309.16211714293,5043.201749706477,-23994.12828613857,-31874.749883979548,-35504.092038165574,-35294.05269551906,-21840.22478344736,-31402.613985850097
14360.012335778754,4990.205763602944,-24057.428426436,-31952.980989573123,-35539.206628704866,-35370.227440622744,-21896.037089352263,-31470.630344227597
14281.200084829341,5028.315487899243,-24032.349769157147,-31896.855759245846,-35812.43435292654,-35331.55892271506,-22090.877245769174,-31538.199667715988
14209.652150827904,5077.221104767455,-23965.093370091126,-31821.10569728681,-35818.51402741838,-35263.49786084865,-22068.279632124857,-31483.41554205603
14283.837590675068,5044.989889262902,-23976.31394580769,-31862.545831506948,-35538.24550369329,-35285.20140471475,-21858.75437960081,-31400.445866637932
14370.294138228195,5009.316505112231,-24048.644190865063,-31930.785707329003,-35494.97252642781,-35358.828050950535,-21854.79812083222,-31439.22614326789
14305.876410708,5031.064752467246,-24037.490670381867,-31888.675020775205,-35763.46168082496,-35337.95152162928,-22059.11541689818,-31519.088926206703
14219.24104919923,5084.753642648893,-23963.79696891272,-31811.896778571223,-35841.67043467408,-35260.10039569144,-22088.619719579186,-31485.538957779285
14272.01351785821,5064.279444727832,-23962.03118110075,-31833.332101503864,-35585.117111816064,-35271.79035804157,-21891.253816038825,-31405.11738122909
14367.477818426827,5006.477833566408,-24029.66755982251,-31923.387279914296,-35469.8715174045,-35347.719233956246,-21833.161632199484,-31424.809268094217
14314.481832323294,4998.855888707148,-24056.981391546895,-31922.26969269153,-35719.16052331454,-35355.18471660432,-22030.460480506477,-31520.18416168501
14213.362540407485,5057.596273135695,-23995.00000417233,-31830.091098557845,-35860.55765873881,-35273.80201504255,-22108.982158777973,-31501.29693762028
14247.337191979552,5064.257092983376,-23964.400466013012,-31824.100831043823,-35633.151010650516,-35257.48524159018,-21924.58026702169,-31408.917177786494
14345.0366669937,5002.700388753461,-24042.743330328864,-31931.32214919593,-35470.0726831046,-35348.74741420119,-21830.859402520586,-31416.293253456744
14329.278687152708,5003.102720153656,-24068.559595174742,-31933.780841086013,-35673.04887450324,-35366.584106276525,-22006.16413428356,-31513.299824392776
14235.446063929328,5079.43392746853,-24000.833809475163,-31841.803412652425,-35859.931809894064,-35282.98858201368,-22116.13471700367,-31520.56414134075
14233.590869139538,5085.24538102691,-23962.232346800847,-31823.430278710162,-35678.99443852835,-35249.52802056408,-21955.805654025753,-31422.2164657374
14334.151367443965,5022.682848296506,-24016.61414106061,-31908.366907640328,-35467.54693598115,-35324.09344006699,-21827.908972252488,-31403.93273877296
14347.897690283979,5003.885031209592,-24058.94834505896,-31940.911047567257,-35612.609757496095,-35361.95729517428,-21953.972810980416,-31484.28726008979
14238.374142452973,5049.057906753767,-24019.072832950693,-31871.330067077884,-35853.13687957965,-35308.626032903914,-22115.531219903376,-31520.251216918376
14218.52579337666,5077.690491401016,-23963.953431123904,-31824.994900822036,-35735.432593278005,-35258.222849157195,-22004.107773793672,-31443.472974714397
14326.440015606882,5047.314470686254,-23996.78814372875,-31895.49230283407,-35476.73350295228,-35313.386954472895,-21824.869135006564,-31399.17181720398
14364.147408502986,5014.367999359131,-24054.85797582364,-31941.84982083438,-35564.55350691718,-35367.791100477116,-21917.91944717401,-31470.675047716508
14266.716154422302,5053.90823530057,-24022.358539385623,-31871.285363588973,-35824.772515865865,-35313.56576842854,-22100.309681929313,-31520.653548318573
14211.90967701789,5088.8440118842145,-23959.617192699578,-31815.96479606209,-35777.49857634289,-35253.01489269911,-22034.282628808338,-31453.061873085724
14305.027044418699,5052.969462033447,-23987.37805931307,-31879.533157292983,-35514.48559933729,-35299.41711418833,-21849.56781262968,-31399.752962559818
14368.818923094144,5006.097853910667,-24056.959039802437,-31941.98393130111,-35529.39421288898,-35367.85815571048,-21890.695022427444,-31459.32036153321
14283.390555785962,5030.550662344774,-24039.099995982648,-31890.753733009547,-35802.823102810755,-35334.12937332742,-22090.385507391158,-31528.61076934466
14211.596752595515,5081.155011791589,-23969.07198060417,-31817.2611972405,-35825.130143777154,-35256.72528227869,-22075.275728139368,-31479.50398677635
14288.710270966325,5055.606967879173,-23980.046687131726,-31859.193069838653,-35560.88782082651,-35283.36856166942,-21878.692135654943,-31407.486666141354
14370.763524861757,4997.738301484383,-24046.207850719435,-31939.771108600034,-35499.86755846352,-35358.29160908361,-21868.298574483226,-31447.116309060613
14308.938599698378,5017.363133116142,-24046.99016177537,-31904.656518060747,-35759.01368367836,-35343.13712634291,-22063.6081175337,-31527.20260944398
14220.04571199962,5079.724500146449,-23974.771675440275,-31815.562464661893,-35849.71706267799,-35260.41332011382,-22096.308719671815,-31490.299879348266
14268.705459678826,5069.8897325861135,-23967.149730581015,-31833.555618948416,-35600.718629445866,-35264.21311667122,-21900.440383009958,-31403.999794006326
14365.220292236841,5019.061865694745,-24034.42848139149,-31918.69341357868,-35478.45458727534,-35339.71730944125,-21836.872021779065,-31420.540084903252
14317.78989050268,5008.9588772009465,-24057.562536902733,-31926.69533809368,-35714.08667732318,-35347.85334442298,-22023.665550192065,-31507.443667345487
14219.688084088337,5074.516543688363,-23995.5140942948,-31832.19216253664,-35875.91330717961,-35276.01483774362,-22121.789708350865,-31504.56029231075
14240.966944809788,5074.538895432817,-23977.69975396392,-31831.298092758432,-35667.86326978961,-35270.91864000781,-21955.068046458728,-31422.88701807106
14355.966670032343,5027.063790209745,-24022.09031845216,-31919.36396591234,-35471.63730521647,-35339.672605952335,-21823.483326850335,-31412.06877375469
14346.154254216464,5012.959839458446,-24050.2758682103,-31929.51165789505,-35658.09555746264,-35357.68811198331,-21973.77645656782,-31490.635155515094
14239.804654098112,5070.470877941952,-23996.922254195484,-31837.78009865047,-35867.911382664606,-35282.83211980249,-22107.194019221548,-31505.05203068877
14240.832834343057,5095.7730526653595,-23957.6055356986,-31814.646043139226,-35708.00700283134,-35252.67961653228,-21969.216700698937,-31420.204808736424
14330.9327162424,5024.649801808572,-24026.314798154213,-31913.686622820693,-35494.83841596108,-35332.09536458199,-21835.910896767487,-31407.35255567462
14349.864643796045,5004.242659120877,-24067.933746329993,-31939.70405336667,-35624.09855414612,-35374.27310636915,-21961.39359013958,-31489.76343748134
14245.72786637877,5054.154104489578,-24015.295388137747,-31856.801433181936,-35860.982341883464,-35313.96809982874,-22116.738214103963,-31523.380461142122
14222.392645167429,5089.7827851513375,-23958.924288621463,-31807.11350525779,-35755.66092201006,-35260.52507883609,-22006.387651728113,-31443.89765785905
14321.992018460276,5037.680868826016,-23999.336242596655,-31884.495244562062,-35499.50993055224,-35312.93991958379,-21830.010036231284,-31396.22138693588
14362.001641035276,4995.704292738949,-24061.407036949044,-31946.051948791977,-35573.85183261059,-35377.424702337354,-21918.657054741034,-31472.75375995085
14265.755029410724,5034.305755413265,-24021.75504228533,-31875.509843291027,-35827.96881532297,-35322.4394109773,-22100.64495809614,-31520.00534772937
14212.535525862639,5081.557343191784,-23957.627887443054,-31809.840418081334,-35786.97571599194,-35251.0702909315,-22036.74132069842,-31440.477840957385
14310.59262878807,5063.363023205165,-23979.264376075793,-31862.232907084577,-35517.74895402777,-35289.202366972255,-21837.967257257376,-31373.48966282483
14365.063830025654,5003.460348064941,-24057.24961248036,-31942.140393512298,-35529.28245416671,-35359.69976898429,-21878.066286810197,-31433.951131576436
14279.501352250738,5026.929679743013,-24054.030961278793,-31897.59336681287,-35804.65594585609,-35337.012748362155,-22087.636242823155,-31522.151115197077
14211.060310728588,5086.6758926720495,-23973.78819868424,-31814.511932672496,-35832.01448106939,-35262.64849455935,-22079.366097374692,-31475.883004174593
14282.585892985571,5058.132715002623,-23977.185663841447,-31856.510860504015,-35568.01802730776,-35284.50850063664,-21886.09056306965,-31392.466293867386
14368.573053905136,5002.834499220193,-24046.76664433082,-31931.8362393184,-35504.74023875478,-35361.28674284062,-21870.824321606677,-31432.185343764468
14305.83170721909,5015.664400537539,-24055.305010712746,-31909.26097741854,-35768.8931547276,-35358.22455385024,-22072.995850204927,-31517.14432443909
14219.91160153289,5079.880962357636,-23970.390733527034,-31809.907473314703,-35853.74037667995,-35271.432730130284,-22101.583731363266,-31482.677934489006
14265.084477077065,5068.973311063446,-23967.149730581015,-31845.49145048755,-35608.58644349414,-35279.94874476776,-21908.19643833595,-31402.278709683265
14355.899614798978,5002.342760842176,-24051.594621133165,-31934.764317842048,-35488.55757576914,-35371.277972612144,-21852.093559753128,-31430.263093741312
14321.12030042652,5000.889897452581,-24064.04454279477,-31923.45433514766,-35717.90882562505,-35373.80371973559,-22038.015370132372,-31519.96064424046
14219.218697454775,5057.037479524312,-24006.64526303354,-31835.701386416127,-35877.88026069168,-35293.65036411886,-22126.930609575586,-31511.489333091897
14243.827968100068,5075.209447766477,-23974.59286148463,-31827.49829620103,-35672.445377402946,-35274.383160398385,-21953.324610391213,-31418.371965691087
14351.049286252177,5015.8208627487265,-24025.152507442537,-31918.93928276769,-35478.63340123098,-35343.47240250974,-21829.294780408716,-31404.44682889543
14345.0366669937,5010.076464423712,-24062.412865449533,-31932.283274207508,-35661.24715343084,-35365.62298126495,-21983.96885203944,-31490.076361903713
14240.38579945395,5065.419383695053,-24001.839637975652,-31838.562409706406,-35869.028969887375,-35289.87291930591,-22111.32909194578,-31501.632213787107
14228.025284770167,5075.8129448667705,-23961.427684000457,-31821.77624962047,-35714.7795814013,-35260.03334045808,-21967.853244287166,-31420.473029669887
14339.091102968587,5034.171644946533,-24011.719109024896,-31901.795494770467,-35478.946325653356,-35319.64544292038,-21809.133506910028,-31389.91819499948
14356.190187476897,5000.375807330109,-24063.552804416755,-31943.03446329051,-35607.04417312672,-35367.61228652147,-21924.71437748842,-31475.525376263307
14258.647174673937,5052.1424474886,-24005.4159170885,-31857.49433726005,-35852.57808596827,-35306.63672764739,-22092.978309747974,-31517.546655839284
14225.901869046911,5085.0889188157225,-23953.157538551994,-31807.359374446798,-35755.34799758768,-35252.634913043374,-21991.903721321076,-31442.198925280445
14328.049341207665,5036.697392069983,-23997.36928908459,-31882.84121547237,-35495.3301543391,-35310.525931182616,-21808.999396443298,-31396.623718336075
14370.629414395025,4996.978342172903,-24059.90947007054,-31943.883829579812,-35559.92669581493,-35375.86008022548,-21882.961318845908,-31473.021980884314
14279.322538295095,5041.905348528069,-24029.71226331142,-31875.889822946767,-35829.891065346135,-35323.89227436689,-22072.794684504832,-31531.42708914603
14214.748348563713,5077.735194889927,-23968.31202129269,-31815.29424372843,-35803.62776561115,-35260.346264880456,-22021.810355402275,-31470.496233760863
14298.522686782204,5038.843159537692,-23991.55783552621,-31879.98019218209,-35529.86359952255,-35296.399628686864,-21821.51637333827,-31400.267052682288
14376.172647019941,5007.081330666701,-24047.548955386756,-31948.018902304044,-35516.98899471629,-35358.71629222826,-21840.04596949172,-31444.56821019271
14298.701500737847,5032.361153645654,-24037.624780848597,-31897.682773790693,-35785.478149113434,-35331.38010875942,-22044.095044624217,-31525.32506290973
14217.229392198253,5076.885828600625,-23972.93883239494,-31833.175639292676,-35829.533437434846,-35258.73693927967,-22047.69367548152,-31481.80621645525
14286.20687558733,5064.726479616938,-23968.289669548234,-31857.628447726784,-35562.38538770502,-35274.383160398385,-21842.5046613818,-31404.960919017904
14377.469048198349,5009.271801623321,-24035.814289547718,-31946.409576703263,-35480.39918904295,-35350.55790550207,-21817.82833550314,-31442.98123633638
14320.427396348405,5016.625525549117,-24050.119405999114,-31927.298835193975,-35744.12742187112,-35348.278027567634,-22027.01831186036,-31536.09860373719
14227.421787669873,5074.248322754899,-23973.519977750777,-31841.959874863613,-35854.12035633568,-35270.94099175227,-22079.45550435251,-31514.126838937624
14265.933843366367,5072.773107620848,-23965.585108469142,-31859.79656693895,-35614.844931941625,-35271.6785993193,-21891.43262999447,-31427.2679599843
14370.60706265057,5020.291211639787,-24032.014492990314,-31948.689454637704,-35474.76654944021,-35349.44031827931,-21818.565943070167,-31437.41565196701
14341.50509136976,5014.65857203705,-24053.069836267216,-31946.387224958806,-35690.86321483412,-35350.446146779796,-21992.52957016582,-31520.362975640655
14244.163244266898,5079.188058279522,-23978.616175486586,-31849.604171467327,-35857.786042426356,-35269.39872138485,-22091.83837078075,-31523.201647186477
14259.653003174426,5085.714767660471,-23949.290686761226,-31838.182430050663,-35657.11208070661,-35250.24327638665,-21926.01077866683,-31431.045404797245
14358.112437500053,5019.173624417022,-24021.442117862956,-31934.250227719574,-35464.99883711324,-35330.91072212586,-21805.89250396401,-31422.17176224849
14358.715934600346,5005.7849294882935,-24067.039676551783,-31953.428024462228,-35639.47655433137,-35358.693940483805,-21959.404284883058,-31508.27068189033
14252.098113548533,5070.135601775122,-23998.486876307354,-31870.815976955415,-35856.28847554785,-35286.11782623742,-22097.448658639034,-31527.62729258863
14236.407188940906,5085.111270560178,-23950.005942583794,-31841.557543463416,-35716.45596223545,-35249.75153800864,-21967.316802420235,-31445.46227997092
14345.595460605082,5031.400028634075,-24005.125344410582,-31919.095744978877,-35480.1756715984,-35312.71640213924,-21815.41434710197,-31414.12513424458
14371.255263239773,5001.985132930891,-24052.66750486702,-31958.41246347576,-35591.46500724137,-35359.56565851756,-21926.368406578113,-31488.265870602834
14265.039773588154,5048.543816631296,-24004.253626376823,-31878.1249973923,-35839.0105770839,-35299.975907799715,-22090.519617857888,-31527.515533866354
14222.504403889705,5083.479593214941,-23969.429608515456,-31837.511877717006,-35766.970904704445,-35253.14900316585,-22007.237018017415,-31460.54970747825
14329.144576685976,5040.877168283126,-23989.99321341434,-31902.778971526503,-35500.98514568629,-35302.38989620088,-21818.342425625615,-31406.637299852053
14381.470010455849,5006.030798677301,-24050.320571699212,-31961.631114677326,-35549.756652087766,-35359.54330677311,-21882.782504890267,-31472.194966339466
14294.901704180445,5050.309604443265,-24016.636492805064,-31895.06761968942,-35810.869730814666,-35313.85634110646,-22071.766504259886,-31531.583551357216
14232.71915110578,5099.1034625892,-23950.095349561616,-31818.87052284128,-35793.43537013952,-35244.54358155055,-22030.3487217842,-31468.506928504343
14301.495468794761,5049.370831176142,-23984.13705636705,-31890.038477186976,-35529.37186114453,-35292.622183873915,-21843.219917204373,-31407.061982996704
14378.296062743195,5004.265010865332,-24042.631571606587,-31966.48144322413,-35506.7295440113,-35370.160385389376,-21860.36370520159,-31458.716864432918
14306.703425252847,5034.99865949138,-24030.874554023096,-31928.505829394562,-35777.69974204299,-35333.14589657139,-22056.27674535236,-31536.00919675937
14227.175918480865,5093.649636942106,-23944.77563438125,-31826.850095611826,-35824.45959144349,-35254.71362527771,-22058.780140731353,-31494.434952072497
14280.238959817763,5059.183246992022,-23961.092407833625,-31868.133767620777,-35578.65745766848,-35283.614430858426,-21876.166388531496,-31427.603236151128
14379.815981366157,5019.240679650388,-24032.282713923778,-31953.584486673415,-35491.26213684823,-35361.39850156289,-21840.828280547656,-31450.491422473366
14328.205803418852,5027.175548932022,-24039.099995982648,-31928.282311950006,-35737.35484330116,-35351.85430668048,-22029.007617116884,-31529.035452489312
14229.76872083768,5083.747814148404,-23964.020486357273,-31847.25723829952,-35859.28360930486,-35273.623201086906,-22087.099800956228,-31505.99080395589
14265.285642777162,5077.712843145471,-23948.463672216378,-31860.936505906167,-35631.85460947211,-35272.907945264335,-21909.76106044782,-31423.2669977268
14367.991908549298,5017.206670904955,-24013.998986959337,-31951.103443038875,-35479.68393322038,-35347.026329878136,-21829.652408320002,-31429.07845128518
14343.60615534856,5015.686752281994,-24046.587830375174,-31956.199640774685,-35695.087694536174,-35366.36058883197,-22004.93478833852,-31522.687557064004
14240.162282009398,5073.264845998865,-23980.113742365094,-31859.55069774994,-35867.8666791757,-35288.75533208315,-22101.539027874354,-31526.19678094349
14254.109770549509,5084.194849037511,-23936.460785443876,-31838.78592715096,-35675.90989779352,-35260.77094802511,-21940.606467796144,-31437.885038600572
14366.427286437427,5037.882034526114,-23993.904768694018,-31922.51556188054,-35462.80836615663,-35327.33444301301,-21808.17238189845,-31412.605215621617
14353.776199075724,5003.527403298307,-24057.115502013625,-31962.256963522075,-35642.91872297749,-35373.96018194678,-21969.44021814349,-31511.735202280906
14256.032020572666,5070.560284919773,-23993.50243729382,-31858.142537849253,-35870.52653676588,-35299.84179733298,-22116.604103637233,-31535.226885703432
14239.29056397564,5091.973256107957,-23945.982628581838,-31821.597435664826,-35732.4821630099,-35251.7184915207,-21985.891102062596,-31438.577942678687
14346.042495494188,5044.632261351617,-23996.631681517563,-31901.191997670176,-35488.66933449142,-35311.777628872114,-21822.36573962757,-31399.037706737246
14374.920949330444,5008.9588772009465,-24043.90562104054,-31944.59908540238,-35594.68365844293,-35366.20412662079,-21933.431557825992,-31478.2299373424
14273.220512058797,5055.472857412441,-24011.920274724995,-31872.11237813382,-35855.93084763656,-35308.67073639283,-22119.487478671967,-31536.769156070848
14237.524776163671,5095.370721265164,-23953.78338739674,-31813.39434544973,-35779.89021299961,-35244.655340272824,-22027.73356768293,-31454.47003298641
14344.544928615682,5069.286235485821,-23957.247907787314,-31868.804319954437,-35499.755799741244,-35283.390913413874,-21825.98672222933,-31387.280689153755
14394.612836195569,5019.128920928111,-24020.548048084744,-31938.87703882182,-35534.66922458044,-35348.769765945646,-21884.90592061352,-31446.80338463824
14289.380823299984,5042.732363072916,-24017.463507349912,-31882.505939305538,-35815.76476285038,-35321.008899332155,-22081.869492753685,-31514.730336037916
14222.705569589803,5097.047102099312,-23956.800872898206,-31814.601339650315,-35815.0048035389,-35255.853564244935,-22055.203861618505,-31467.523451748308
14301.897800194956,5068.258055240876,-23970.413085271488,-31864.199860596644,-35540.14540197199,-35286.184881470785,-21859.268469723283,-31398.210692192402
14385.381565735528,5014.367999359131,-24020.302178895734,-31941.693358623193,-35498.12412239601,-35361.51026028517,-21860.14018775704,-31440.65665491303
14317.655780035948,5043.402915406575,-24011.830867747172,-31894.59823305586,-35763.37227384714,-35337.45978325126,-22060.41181807659,-31517.72546979493
14231.445101671829,5098.969352122468,-23951.88348911804,-31808.029926780455,-35834.67433865957,-35256.769985767605,-22085.445771866533,-31486.768303724326
14288.263236077219,5073.711880887971,-23955.75034090881,-31842.45161324163,-35580.28913501372,-35269.152852195846,-21888.90688287102,-31408.425439408475
14377.80432436518,5012.065769680235,-24030.829850534185,-31933.80319283047,-35482.96963965531,-35347.294550811595,-21847.198527717417,-31435.94043683296
14334.956030244355,5031.601194334173,-24038.89883028255,-31916.055907732956,-35728.74942168587,-35347.47336476724,-22035.69078870902,-31517.054917461268
14234.462587173295,5087.279389772343,-23976.06807661868,-31828.0123863235,-35861.071748861286,-35271.76800629711,-22104.55651337582,-31503.71092602145
14270.046564346143,5089.067529328768,-23958.16432930998,-31836.640159683247,-35641.77878401027,-35267.61058182843,-21927.977732178897,-31422.88701807106
14375.703260386379,5027.868453010136,-24015.630664304575,-31921.017995002032,-35474.09599710655,-35341.59485597549,-21831.59701008761,-31425.613930894608
14342.577975103615,5009.271801623321,-24063.888080583583,-31941.51454466755,-35687.51045316583,-35361.063225396065,-22009.248675018393,-31520.117106451646
14244.900851833923,5078.830430368237,-23983.779428455764,-31851.369959279295,-35873.45461528953,-35286.050771004055,-22122.99670255145,-31527.157905955068
14261.038811330654,5095.9518666210015,-23941.10994829058,-31814.53428441695,-35683.80006358625,-35250.77971825358,-21953.458720857947,-31423.110535515614
14362.135751502008,5032.070580967735,-23997.83867571815,-31898.956823224646,-35465.13294757998,-35319.42192547583,-21813.98383545683,-31400.267052682288
14361.085219512608,5006.7237027554165,-24056.66846712452,-31938.51941091054,-35630.222932126875,-35362.15846087438,-21964.522834363324,-31494.881986961605
14250.377029225474,5058.758563847371,-24006.108821166614,-31869.340761821364,-35870.72770246598,-35304.26744273513,-22122.99670255145,-31533.550504869287
14232.897965061424,5085.29008451582,-23954.789215897228,-31825.888970600245,-35742.85337243717,-35255.83121250048,-22000.866770847653,-31451.161974807022
14338.308791912652,5033.009354234857,-23991.84840820413,-31904.07537270491,-35488.512872280226,-35308.491922437184,-21821.337559382628,-31396.914291013993
14364.303870714173,4994.385539816087,-24058.456606680946,-31960.111196054364,-35588.73809441782,-35370.56271678957,-21924.401453066046,-31484.644888001072
14270.337137024062,5047.001546263879,-24012.970806714395,-31882.21536662762,-35843.34681550823,-35311.26353874964,-22099.214446451002,-31533.639911847105
14211.887325273434,5078.5175059458625,-23962.008829356295,-31828.43706946815,-35786.528681102835,-35253.64074154386,-22028.73939618342,-31460.54970747825
14320.06976843712,5050.287252698809,-23975.799855685218,-31882.952974194646,-35513.56917781463,-35286.92248903781,-21833.02752173275,-31393.44977062342
14378.296062743195,4999.772310229816,-24040.351693672146,-31955.059701807466,-35540.14540197199,-35354.96119915977,-21882.693097912445,-31453.061873085724
14291.325425067596,5032.227043178921,-24029.153469700035,-31907.584596584395,-35816.256501228396,-35327.13327731291,-22085.758696288907,-31530.175391456534
14220.96213352229,5087.122927561156,-23962.94760262342,-31838.316540517397,-35821.978547808954,-35264.50368934914,-22059.31658259828,-31485.203681612456
14294.678186735891,5055.405802179075,-23971.865948661085,-31875.867471202313,-35553.17646898943,-35294.298564708064,-21861.03425753525,-31405.720878329383
14375.256225497274,5000.50991779684,-24042.4751093954,-31953.293913995498,-35510.395230101974,-35357.82222245005,-21860.497815668325,-31439.136736290067
14308.044529920166,5024.381580875109,-24044.442062907467,-31915.363003654842,-35772.93882047401,-35332.65415819337,-22055.494434296423,-31516.227902916424
14213.250781685208,5079.791555379815,-23974.704620206907,-31835.276703271476,-35854.075652846775,-35261.26268640312,-22083.724687543476,-31488.89171944758
14272.68407019187,5062.826581338237,-23964.60163171311,-31858.72368320509,-35600.38335327904,-35272.773834797605,-21890.04682183824,-31405.475009140377
14376.08324004212,5012.110473169145,-24031.18747844547,-31943.526201668526,-35487.037657146175,-35350.26733282415,-21837.408463645992,-31427.44677393994
14329.993942975278,5019.4641970949415,-24051.7287315999,-31930.94216954019,-35725.083735595195,-35352.86013518097,-22028.06884384976,-31515.42324011603
14235.87074707398,5082.697282159005,-23975.41987602948,-31831.655720669714,-35862.390501784146,-35271.432730130284,-22101.248455196437,-31504.09090567719
14265.620918943992,5087.458203727985,-23938.807718611686,-31829.174677035175,-35633.10630716161,-35259.921581735805,-21912.979711649386,-31413.767506333294
14359.498245656283,5016.245545893377,-24012.99315845885,-31926.203599715664,-35471.92787789439,-35337.929169884825,-21818.007149458786,-31409.475971397875
14344.07554198212,5010.434092334997,-24047.57130713121,-31928.483477650105,-35670.59018261316,-35354.849440437494,-21986.047564273784,-31494.14437939458
14239.983468053755,5065.844066839703,-23997.324585595677,-31841.19991555213,-35872.00175189993,-35284.59790761446,-22110.5691326343,-31509.120048179633
14247.873633846479,5085.021863582357,-23945.69205590392,-31817.842342596334,-35702.75434288434,-35249.72918626418,-21964.276965174315,-31424.809268094217
14358.447713666883,5035.646860080584,-23995.64820476153,-31901.50492209255,-35479.88509892048,-35317.34321324149,-21824.444451861913,-31405.69852658493
14363.40980093596,5015.642048793084,-24047.638362364574,-31939.65934987776,-35622.13160063405,-35360.862059695966,-21953.525776091312,-31490.00930667035
14260.167093296897,5068.235703496422,-23991.5131320373,-31849.291247044952,-35855.17088832508,-35292.08574200699,-22105.47293489849,-31515.33383313821
14233.43440692835,5083.613703681673,-23943.79215762522,-31811.20387449311,-35740.48408752491,-35244.253008872634,-21992.68603237701,-31436.432175210975
14334.866623266535,5043.291156684299,-23991.870759948586,-31888.518558564017,-35492.93851768238,-35307.15081776986,-21822.835126261132,-31389.515863599285
14380.754754633279,5017.497243582874,-24048.66654260952,-31933.780841086013,-35573.0471698102,-35356.81639394956,-21912.6220837381,-31460.102672589146
14273.220512058797,5048.789685820304,-24014.69189103745,-31871.397122311253,-35840.39638524013,-35313.319899239534,-22098.65565283962,-31518.843057017693
14226.170089980376,5094.29783753131,-23951.905840862495,-31808.58872039184,-35791.60252709419,-35246.82345948499,-22029.4993554949,-31447.384529994077
14316.202916646353,5055.919892301547,-23987.646280246532,-31875.35338107984,-35528.74601229978,-35289.582346628,-21842.348199170614,-31386.45367460891
14383.973405834844,5010.478795823908,-24036.864821537118,-31929.84693406188,-35535.7868118032,-35353.57539100354,-21879.65326066652,-31444.054120070236
14296.131050125487,5033.23287167941,-24019.22929516188,-31884.115264906322,-35803.62776561115,-35325.211027289755,-22077.242681651438,-31512.80808601476
14217.29644743162,5081.736157147427,-23957.98551535434,-31812.142647760233,-35831.23217001345,-35255.361825866916,-22067.18439664655,-31467.65756221504
14288.598512244049,5057.28334871332,-23969.854291660107,-31860.087139616866,-35568.37565521904,-35283.949707025255,-21868.879719839064,-31394.54500610173
14366.963728304354,4985.646007734062,-24041.558687872734,-31942.922704568235,-35507.62361378952,-35360.303266084586,-21854.015809776283,-31434.375814721086
14307.262218864229,5012.222231891422,-24042.788033817775,-31912.010241986543,-35764.869840725645,-35345.46170776626,-22052.275783094858,-31518.440725617496
14222.280886445153,5080.082128057734,-23974.905785907005,-31819.563426919394,-35852.95806562401,-35267.23060217269,-22089.267920168393,-31485.963640923936
14277.959081883322,5063.631244138628,-23951.16823329547,-31834.717909660092,-35601.277423057254,-35269.39872138485,-21897.57935971968,-31400.199997448923
14373.378678963029,5000.554621285752,-24023.56553358621,-31933.244399219086,-35481.40501754344,-35355.89997242689,-21841.789405559233,-31423.64697738254
14332.78791103219,5011.3058103687545,-24048.912411798527,-31926.22595146012,-35714.332546512196,-35362.69490274131,-22026.92890488254,-31509.365917368643
14230.238107471241,5066.671081384549,-23979.73376270935,-31833.62267418178,-35867.37494079768,-35288.710628594235,-22109.09391750025,-31500.268757375332
14257.909567106912,5071.990796564913,-23966.389771269533,-31837.15424980572,-35661.180098197474,-35281.98275351319,-21942.05933118574,-31418.662538369008
14369.891806828,5021.22998490691,-24002.51019030931,-31910.780896041502,-35469.6703517044,-35343.114774598456,-21826.83608851863,-31406.011451007304
14356.257242710262,5007.193089388978,-24047.772472831308,-31926.717689838137,-35665.29281917725,-35367.58993477702,-21991.568445154244,-31499.732315508405
14249.907642591912,5069.196828507999,-23993.27891984927,-31843.390386508752,-35875.734493223965,-35301.3840677004,-22123.89077232966,-31521.301748907776
14246.510177434706,5089.62632294015,-23948.240154771825,-31812.589682649337,-35710.06336332123,-35264.861317260424,-21977.509197891857,-31436.275712999788
14355.474931654328,5037.055019981268,-23997.70456525142,-31888.138578908278,-35481.11444486552,-35326.28391102361,-21826.389053629526,-31402.234006194358
14369.891806828,5004.7343974988935,-24053.248650222857,-31933.691434108194,-35621.57280702267,-35380.218670394264,-21961.6841628175,-31494.166731139034
14263.318689265096,5051.740116088405,-24007.628739789576,-31855.415625025707,-35869.587763498756,-35313.90104459537,-22122.683778129074,-31527.04614723279
14234.417883684384,5079.009244323879,-23952.956372851895,-31814.891912328236,-35762.65701802457,-35267.00708472813,-22017.719986166954,-31450.670236429007
14336.028913978209,5030.215386177943,-24002.778411242773,-31886.59630854086,-35512.27277663622,-35320.718326654234,-21849.411350418493,-31402.613985850097
14380.665347655458,5004.46617656543,-24046.699589097454,-31932.193867229686,-35578.769216390756,-35370.51801330066,-21930.23525836888,-31461.711998189927
14280.931863895878,5047.448581152986,-24019.162239928515,-31857.650799471237,-35837.82593462776,-35322.484114466206,-22109.56330413381,-31516.3396616387
14221.900906789411,5089.872192129158,-23950.16240479498,-31789.969717260567,-35797.81631205277,-35256.52411657859,-22038.84238467722,-31445.21641078191
14309.273875865207,5054.578787634228,-23975.665745218488,-31860.2212500836,-35525.08032620911,-35290.118788494925,-21842.772882315265,-31375.836595992638
14370.51765567275,4997.93946718448,-24038.56355411572,-31928.21525671664,-35527.42725937692,-35357.86692593896,-21877.306327498714,-31426.955035561925
14298.030948404188,5044.431095651519,-24023.029091719283,-31866.1221106198,-35793.99416375091,-35325.345137756485,-22074.5604723168,-31495.70900150645
14215.061272986088,5086.094747316211,-23958.767826410276,-31794.48476964054,-35828.818181612274,-35251.04793918705,-22065.93269895705,-31451.005512595835
14279.613110973014,5055.76343009036,-23968.155559081504,-31841.423432996686,-35567.32512322964,-35272.416206886315,-21869.23734775035,-31377.669439037974
14368.8412748386,5006.187260888489,-24032.1709552015,-31915.519465866026,-35494.816064216626,-35346.55694324457,-21848.137300984537,-31412.89578829954
14311.777271244202,5026.035609964802,-24032.1709552015,-31876.135692135776,-35747.390776561595,-35333.32471052703,-22042.30690506779,-31493.630289272107
14212.110842717988,5070.6496918975945,-23981.83482668815,-31804.67716511216,-35863.06105411781,-35265.35305563844,-22104.780030820373,-31480.80038795476
14265.196235799342,5077.042290811813,-23963.439341001435,-31823.452630454616,-35619.605853510606,-35267.34236089497,-21918.500592529846,-31399.37298290408
14371.501132428783,5020.626487806617,-24017.955245727928,-31912.725497809115,-35474.20775582883,-35341.55015248658,-21835.665027578478,-31411.4652766544
14337.995867490277,5016.580822060207,-24044.240897207368,-31903.829503515903,-35700.474464949904,-35353.53068751463,-22011.908532608573,-31495.597242784173
14225.365427179984,5066.045232539801,-23983.824131944675,-31824.324348488375,-35867.37494079768,-35281.04398024607,-22106.121135487694,-31489.76343748134
14240.519909920682,5065.754659861882,-23959.41602699948,-31824.369051977286,-35665.09165347715,-35265.93420099428,-21941.858165485643,-31403.619814350586
14354.469103153839,5011.462272579941,-24008.232236889868,-31904.231834916096,-35469.4691860043,-35330.91072212586,-21821.471669849358,-31386.230157164355
14346.847158294579,5006.790757988782,-24046.207850719435,-31921.241512446584,-35640.95176946542,-35356.347007316,-21962.019438984327,-31465.914126147527
14229.701665604314,5053.192979478,-24002.621949031585,-31852.442843013152,-35861.697597706036,-35293.248032718664,-22105.160010476116,-31496.267795117834
14231.445101671829,5080.8644391136695,-23942.048721557705,-31803.82779882286,-35701.70381089495,-35251.092642675954,-21965.86393903064,-31409.02893650877
14339.091102968587,5027.086141954201,-23994.687079749954,-31882.55064279445,-35468.88804064847,-35313.096381794974,-21808.731175509834,-31374.719008769873
14355.162007231953,4989.51285952483,-24048.3759699316,-31927.99173927209,-35597.58938522213,-35363.07488239704,-21932.895115959065,-31457.12989057659
14250.444084458839,5044.431095651519,-24015.876533493585,-31852.39813952424,-35848.35360626622,-35305.072105535524,-22108.021033766396,-31497.966527696437
14214.122499718966,5080.171535035555,-23952.732855407343,-31799.78213307645,-35757.35965458866,-35253.908962477326,-22013.137878553614,-31429.391375707553
14325.255373150752,5048.879092798125,-23975.17400684047,-31857.427282026685,-35491.9773926708,-35295.52791065311,-21824.98089372884,-31377.714142526886
14365.51086491476,5001.716911997427,-24045.93962978597,-31921.956768269156,-35554.40581493447,-35357.68811198331,-21901.781487677275,-31444.41174798152
14269.420715501396,5042.911177028558,-24030.33811215617,-31857.0696541154,-35825.17484726606,-35310.81650386054,-22096.465181883003,-31494.770228239326
14209.875668272456,5084.708939159982,-23960.82418690016,-31790.126179471754,-35802.89015804412,-35249.03628218607,-22044.229155090947,-31432.967654820404
14287.704442465836,5045.034592751813,-23976.045724874228,-31850.945276134644,-35533.43987863539,-35290.40936117284,-21845.879774794554,-31366.895898210514
14371.121152773041,5004.399121332064,-24030.51692611181,-31917.352308911362,-35520.051183706666,-35357.46459453876,-21867.18098726046,-31419.109573258113
14294.633483246982,5033.881072268614,-24020.145716684547,-31864.624543741294,-35787.243936925406,-35332.31888202654,-22068.145521658127,-31499.62055678613
14200.264418156674,5066.872247084648,-23965.629811958053,-31798.57513887586,-35837.5577136943,-35262.20145967024,-22073.733457771952,-31456.816966154216
14266.962023611311,5050.108438743167,-23974.4587510179,-31834.337930004353,-35579.819748380156,-35278.227660444696,-21871.65133615152,-31370.248659878813
14372.819885351646,5010.724665012916,-24024.884286509074,-31918.536951367492,-35488.848148447054,-35344.94761764379,-21837.56492585718,-31398.478913125866
14319.935657970389,5034.462217624452,-24037.75889131533,-31892.944203966166,-35736.0360903783,-35338.2420943072,-22035.623733475655,-31486.813007213237
14221.72209283377,5093.314360775275,-23972.13416959455,-31793.322478928865,-35857.74133893744,-35264.14606143785,-22095.07937372677,-31473.245498328866
14255.741447894747,5070.135601775122,-23955.862099631086,-31812.276758226963,-35621.79632446722,-35261.240334658665,-21903.413165022514,-31382.02802920676
14358.850045067078,5013.138653414089,-24022.112670196613,-31900.342631380874,-35476.711151207826,-35345.394652532894,-21826.433757118437,-31393.136846201047
14334.12901569951,5015.642048793084,-24046.31960944171,-31895.805227256446,-35692.69605787946,-35356.21289684926,-22004.89008484961,-31485.158978123545
14228.29350570363,5069.733270374927,-23981.432495287954,-31807.314670957887,-35864.692731463045,-35273.15381445334,-22105.04825175384,-31482.029733899803
14236.138968007443,5077.422270467552,-23953.850442630108,-31804.900682556712,-35674.36762742611,-35253.484279332675,-21940.002970695852,-31388.197110676425
14347.540062372693,5020.067694195234,-24013.619007303598,-31888.295041119465,-35478.40988378643,-35326.21685579024,-21815.36964361306,-31375.63543029254
14344.164948959942,4998.051225906757,-24054.925031057006,-31912.680794320204,-35641.15293516552,-35357.218725349754,-21961.77356979532,-31464.908297647038
14240.542261665138,5064.681776128027,-23987.154541868513,-31830.20285728012,-35862.05522561732,-35291.97398328471,-22106.81403956581,-31492.870329960628
14224.560764379594,5083.9713315929575,-23951.727026906854,-31807.895816313725,-35727.430668763,-35261.35209338094,-21976.50336939137,-31414.013375522303
14330.508033097749,5032.182339690011,-23997.27988210677,-31886.864529474326,-35486.9258984239,-35319.91366385385,-21811.63690228902,-31376.708314026397
14357.419533421938,5001.962781186436,-24035.47901338089,-31919.945111268178,-35588.42516999545,-35357.084614883024,-21909.11285985862,-31445.59639043765
14253.573328682582,5040.89952002758,-23993.189512871446,-31850.16296507871,-35841.357510251706,-35301.27230897812,-22079.90253924162,-31493.630289272107
14214.502479374705,5081.177363536044,-23941.288762246226,-31804.185426734144,-35757.06908191074,-35244.945912950745,-21985.60052938468,-31422.439983181954
14303.507125795739,5032.204691434466,-23984.964070911894,-31868.133767620777,-35498.90643345194,-35296.08670426449,-21797.64471026,-31367.320581355165
14356.212539221353,4983.723757710905,-24040.19523146096,-31927.947035783178,-35545.6886345969,-35360.48208004023,-21864.297612225728,-31435.51575368831
14267.431410244872,5019.4641970949415,-24016.480030593877,-31871.50888103353,-35813.440181427024,-35320.91949235433,-22053.728646484455,-31499.24057713039
14207.864011271478,5074.628302410639,-23954.69980891941,-31807.24761572452,-35801.1020184877,-35256.36765436741,-22013.92018960955,-31445.775204393292
14294.678186735891,5045.325165429731,-23964.5569282242,-31863.8198809409,-35532.45640187936,-35285.87195704841,-21817.001320958298,-31376.395389604022
14369.780048105724,4998.587667773684,-24041.6257431061,-31935.770146342536,-35508.96471845683,-35357.68811198331,-21826.523164096256,-31425.345709961144
14309.139765398475,5036.093894969689,-24029.13111795558,-31884.428189328697,-35772.491785584905,-35328.87671338042,-22023.531439725335,-31509.164751668544
14220.917430033378,5086.742947905415,-23970.54719573822,-31802.82197032237,-35830.226341512964,-35246.30936936252,-22033.925000897052,-31463.298972046254
14284.73166045328,5071.655520398083,-23951.056474573194,-31838.227133539574,-35570.25320175329,-35256.72528227869,-21836.31322816768,-31376.194223903924
14381.760583133768,5011.462272579941,-24026.60537083213,-31926.80709681596,-35473.35838953953,-35336.76687917315,-21793.464934046857,-31406.704355085418
14328.094044696576,5016.9384499714915,-24040.128176227594,-31910.870303019325,-35721.865084393634,-35334.8893326389,-21989.154456753073,-31490.344582837177
14226.19244172483,5072.8178111097595,-23975.352820796114,-31827.766517134492,-35848.53242022186,-35260.815651514014,-22057.79666397532,-31482.052085644256
14274.248692303741,5072.683700643027,-23945.379131481546,-31835.075537571378,-35607.982946393844,-35253.99836945515,-21869.19264426144,-31396.556663102707
14368.617757394048,5003.661513765039,-24022.000911474337,-31939.100556266378,-35455.54404920865,-35336.09632683949,-21782.35611705257,-31404.89386378454
14348.03180075071,5000.375807330109,-24047.280734453292,-31941.916876067746,-35665.98572325536,-35347.160440344865,-21951.67058130152,-31486.678896746507
14240.765779109692,5063.363023205165,-23981.879530177062,-31858.74603494955,-35851.840478401245,-35279.12173022291,-22067.4079140911,-31500.626385286618
14240.609316898504,5066.33580521772,-23965.942736380428,-31854.40979652522,-35673.54061288126,-35259.72041603571,-21922.7250722319,-31423.468163426896
14344.053190237664,5002.007484675346,-24026.359501643125,-31950.298780238485,-35468.239840059265,-35335.85045765048,-21790.51450377876,-31409.54302663124
14348.098855984075,4978.202876830444,-24064.491577683875,-31975.04216135051,-35630.37939433806,-35370.76388248967,-21935.353807849147,-31499.151170152567
14242.732732621758,5036.093894969689,-24012.03203344727,-31895.022916200513,-35862.90459190662,-35305.3850299579,-22093.626510337177,-31537.10443223768
14230.215755726786,5078.00341582339,-23959.88541363304,-31854.521555247495,-35727.96711062993,-35257.37348286789,-21972.904738534064,-31451.340788762667
14325.07655919511,5010.858775479648,-24018.51403933931,-31940.93339931171,-35484.86953793401,-35321.008899332155,-21807.859457476075,-31410.03476500926
14364.572091647637,4992.4632897929305,-24059.216565992425,-31976.316210784462,-35581.45142572539,-35369.78040573364,-21909.89517091455,-31484.309611834244
14266.135009066464,5043.6487845955835,-24011.070908435693,-31888.898538219757,-35838.76470789489,-35309.810675360044,-22091.458391125012,-31534.422222903042
14221.744444578224,5084.9101048600805,-23963.014657856784,-31836.126069560778,-35772.67059954054,-35254.49010783316,-22015.060128576773,-31466.003533125346
14314.124204412008,5033.031705979312,-23993.189512871446,-31907.808114028947,-35513.256253392254,-35307.441390447784,-21829.11596645307,-31409.721840586884
14369.355364961073,4985.221324589411,-24055.57323164621,-31972.583469460427,-35551.94712304439,-35368.77457723315,-21889.242159037847,-31474.13956810708
14279.836628417568,5026.639107065094,-24040.061120994225,-31910.780896041502,-35820.436277441535,-35329.34610001399,-22089.245568423936,-31543.273513707343
14212.066139229077,5063.027747038334,-23963.394637512523,-31839.702348673625,-35816.14474250612,-35257.50759333463,-22055.22621336296,-31486.745951979872
14294.96875941381,5036.675040325527,-23966.23330905835,-31882.64004977227,-35542.5370386287,-35276.46187263273,-21850.5065858968,-31403.418648650488
14376.597330164592,4997.313618339732,-24034.4731848804,-31946.87896333682,-35506.30486086665,-35345.059376366065,-21847.757321328798,-31435.31458798821
14296.600436759049,5012.781025502804,-24039.681141338486,-31916.614701344337,-35775.911602486565,-35330.97777735922,-22048.87831793765,-31514.216245915446
14209.629799083448,5069.465049441463,-23975.03989637374,-31841.31167427441,-35846.43135624306,-35255.093604933456,-22072.772332760374,-31480.018076898825
14282.340023796562,5070.448526197497,-23953.336352507635,-31854.566258736406,-35585.29592577171,-35260.59213406946,-21872.18777801845,-31394.54500610173
14374.920949330444,5013.697447025472,-24018.335225383667,-31938.765280099546,-35477.13583435248,-35336.722175684234,-21818.923570981453,-31415.846218567636
14336.766521545234,5036.51857811434,-24026.627722576588,-31913.753678054058,-35709.68338366549,-35329.61432094745,-21992.52957016582,-31496.156036395558
14233.836738328546,5091.5485729633065,-23959.59484095512,-31844.55267722043,-35844.643216686636,-35259.98863696917,-22064.681001267552,-31489.42816131451
14259.429485729872,5074.158915777078,-23950.765901895276,-31845.558505720917,-35628.658310015,-35263.43080561529,-21893.578397462177,-31410.347689431634
14363.722725358335,5015.306772626254,-24009.975672957382,-31940.32990221142,-35465.89290689146,-35334.6881669388,-21796.862399204067,-31403.575110861675
14353.55268163117,5018.950106972469,-24030.38281564508,-31938.385300443806,-35663.75054880983,-35348.36743454545,-21961.147720950572,-31483.75081822286
14230.841604571535,5057.305700457776,-23986.93102442396,-31853.515726747006,-35860.11062384971,-35280.55224186805,-22086.406896878114,-31497.899472463072
14232.048598772122,5076.6399594116165,-23955.5044717198,-31847.88308714427,-35688.29276422176,-35261.93323873678,-21939.24301138437,-31422.12705875958
14352.368039175039,5040.89952002758,-24000.14090539705,-31922.113230480343,-35468.373950525995,-35324.47341972273,-21791.654442745978,-31394.567357846186
14363.387449191505,5016.80433950476,-24048.778301331797,-31947.99655055959,-35608.832312683146,-35353.55303925908,-21914.47727852789,-31471.926745406003
14264.145703809942,5077.221104767455,-23982.4606755329,-31861.83057568438,-35837.08832706074,-35283.16739596932,-22064.12220765617,-31494.412600328043
14235.177842995865,5098.947000378013,-23939.63473315653,-31834.382633493264,-35724.86021815064,-35249.282151375075,-21961.617107584134,-31424.965730305405
14341.572146603126,5047.38152591962,-23983.26533833329,-31903.002488971055,-35477.895793663956,-35309.29658523758,-21800.148105638997,-31384.844349008126
14376.55262667568,5020.179452917511,-24045.313780941222,-31951.326960483428,-35570.655533153484,-35362.38197831893,-21898.540484731257,-31462.18138482349
14274.360451026017,5057.1939417355,-24011.093260180147,-31892.40776209924,-35833.579103181255,-35309.76597187114,-22082.920024743085,-31520.18416168501
14224.806633568602,5095.929514876547,-23954.856271130597,-31833.0638805704,-35779.93491648852,-35251.942008965256,-22018.368186756157,-31455.811137653727
