Fp1,Fp2,C3,C4,P7,P8,O1,O2
14389.740155904312,5034.909252513558,-25203.51412338187,-32730.508772195433,-36981.20707049454,-36271.31566659399,-24023.543181841753,-33051.59158129592
14402.637112455024,5032.294098412287,-25234.672455152566,-32739.85180137775,-37111.22716799106,-36288.16888191329,-24132.91026746157,-33115.40581171582
14264.838607888058,5054.109401000667,-25203.961158270977,-32681.871376260686,-37295.38319055834,-36246.01349187058,-24237.2705623234,-33152.75557670064
14233.747331350725,5064.3688517056535,-25165.158529896562,-32664.816995241286,-37192.56516606393,-36226.58982593892,-24143.616753055663,-33099.714887108195
14371.188208006408,5045.258110196365,-25192.8970447656,-32715.756620854932,-36992.114721788734,-36260.83269844445,-24027.968827243905,-33052.955037707696
14421.591391753125,5037.8373310372035,-25231.74437662892,-32740.231781033493,-37070.502289593496,-36285.30785862301,-24108.077479371725,-33101.458323175706
14290.409003544928,5052.85770331117,-25207.358623428183,-32688.688658319556,-37276.98770487162,-36249.969750639175,-24231.481460509476,-33151.861506922425
14220.649209099915,5060.837276081715,-25172.959288711463,-32661.330123106258,-37228.70793684816,-36221.515979947566,-24172.942241781027,-33114.15411402632
14341.639201836491,5038.6643455820495,-25188.113771452165,-32708.335841695767,-37011.94071912059,-36246.12525059286,-24038.205926204435,-33052.70916851868
14420.13852836353,5021.118226184634,-25233.37605397416,-32744.85859213574,-37045.98242592602,-36289.64409704734,-24096.3875170216,-33094.12695099437
14310.16794564342,5039.111380471156,-25222.200181746506,-32704.647803860644,-37264.31426576546,-36270.242782860136,-24239.349274557742,-33158.25410583665
14210.032130483643,5048.9908515204015,-25182.503483593882,-32665.75576850841,-37266.12475706634,-36227.41684048377,-24213.175381800578,-33133.71189042472
14308.491564809272,5039.401953149075,-25184.64925106159,-32701.116228236704,-37049.67046376115,-36239.79970691201,-24074.125179544113,-33067.84129951493
14418.506851018294,5021.766426773837,-25218.55684740029,-32746.937304370083,-37008.09621907428,-36285.620783045386,-24073.029944065805,-33079.710075820694
14330.664495308936,5030.371848389131,-25217.61807413317,-32716.71774586651,-37219.07433498792,-36276.27775386307,-24210.26965502139,-33148.88872490987
14217.318799176073,5051.717764343949,-25174.74742826789,-32668.32621912077,-37284.25202181959,-36236.87162838836,-24226.22880056248,-33146.698253953255
14289.49258202226,5052.567130633251,-25169.40536134307,-32684.218309428492,-37078.79478678641,-36243.01835811357,-24078.684935412995,-33075.48559611864
14419.020941140765,5027.466121609941,-25206.978643772443,-32731.447545462557,-36989.253698498454,-36281.910393465805,-24047.548955386756,-33069.42827337125
14367.991908549298,5039.04432523779,-25205.928111783043,-32710.10162950774,-37175.33197108888,-36272.94734393923,-24183.671079119573,-33132.19197180176
14227.53354639215,5057.6186248801505,-25172.51225382236,-32660.681922517055,-37288.16357709927,-36230.389622496325,-24233.761338443917,-33141.2220765617
14253.930956593867,5040.407781649564,-25169.919451465543,-32682.832501272263,-37116.12220002677,-36237.56453246648,-24108.3904037941,-33079.55361360951
14391.37183324955,5017.363133116142,-25205.548132127304,-32743.495135723966,-36978.88248907119,-36286.35839061241,-24046.051388508247,-33061.51575583407
14377.55845517617,5014.345647614676,-25226.22349574846,-32744.43390899109,-37138.518647970996,-36293.62270756039,-24170.64001210213,-33127.76632639961
14242.576270410571,5042.575900861729,-25184.761009783866,-32680.32910589327,-37289.5493852555,-36242.481916246645,-24246.18890836107,-33147.99465513166
14238.597659897527,5044.542854373795,-25163.862128718156,-32667.208631898004,-37145.24652305204,-36227.57330269495,-24126.852944714185,-33081.677029332765
14378.698394143392,5020.514729084341,-25197.054469234285,-32727.491286693967,-36970.74645408946,-36266.398282813825,-24032.439176134965,-33044.126098647845
14398.904371130988,5011.506976068852,-25224.882391081144,-32742.466955479023,-37093.03284800445,-36286.69366677924,-24138.744072764406,-33104.252291232624
14264.413924743407,5038.619642093139,-25189.41017263057,-32683.257184416914,-37275.870117648854,-36245.499401748115,-24228.955713386025,-33141.4232422618
14220.313932933084,5040.720706071938,-25157.648343759578,-32666.672190031077,-37185.636125282785,-36229.2496835291,-24139.81695649826,-33092.45057016022
14361.576957890626,5034.573976346729,-25176.6920300355,-32714.169646998605,-36982.36936120622,-36259.42453854377,-24020.548048084744,-33044.841354470416
14416.986932395332,5025.722685542427,-25214.488829909424,-32741.885810123185,-37052.33032135133,-36290.33700112546,-24102.24367406889,-33091.89177654884
14293.784116957679,5045.95101427448,-25194.75223955539,-32694.924795022584,-37267.219992544655,-36262.5090792786,-24239.393978046654,-33151.861506922425
14221.856203300502,5060.501999914885,-25158.721227493435,-32662.626524284668,-37226.47276240263,-36227.19332303922,-24178.194901728024,-33114.0647070485
14340.566318102638,5043.1793979620215,-25168.935974709508,-32701.786780570364,-37006.37513475122,-36250.68500646174,-24035.076681980692,-33048.68585451673
14419.602086496603,5019.553604072762,-25217.595722388713,-32750.692397438575,-37022.960129137056,-36294.9638122277,-24076.650926667564,-33083.44281714473
14315.197088145864,5037.055019981268,-25199.826085546745,-32704.893673049653,-37237.04513752999,-36266.5100415361,-24214.628245190175,-33142.38436727338
14215.62006659747,5052.9247585445355,-25164.487977562905,-32664.548774307823,-37256.82643137294,-36228.46737247317,-24197.327994981766,-33121.19491352975
14309.095061909566,5042.531197372818,-25168.064256675752,-32698.79164681335,-37039.90275143418,-36244.024186614064,-24055.707342112943,-33052.105671418394
14410.840202670122,5013.898612725569,-25218.780364844843,-32749.95478987155,-37008.498550474476,-36291.11931218139,-24069.498368441866,-33072.42340712826
14339.046399479676,5022.414627363041,-25214.242960720418,-32721.5233709244,-37214.87220703033,-36273.84141371744,-24213.197733545036,-33138.78573641607
14223.465528901283,5051.963633532958,-25169.561823554257,-32658.357341093702,-37279.6475624618,-36226.27690151655,-24223.345425527743,-33128.79450664455
14290.118430867009,5048.610871864662,-25163.862128718156,-32677.60219306972,-37080.135891453734,-36230.255512029595,-24083.356450004158,-33055.86076448688
14416.294028317217,5016.491415082385,-25205.771649571856,-32736.968426343017,-36980.89414607217,-36278.691742264244,-24045.224373963403,-33046.96477019367
14365.846141081589,5023.219290163433,-25226.37995795965,-32727.088955293773,-37175.75665423353,-36278.89290796434,-24185.906253565106,-33119.87616060688
14224.024322512667,5041.078333983223,-25189.16430344156,-32672.349533122724,-37295.51730102507,-36233.13888706433,-24234.588352988765,-33129.44270723376
14255.026192072177,5039.960746760457,-25165.69497176349,-32676.149329680127,-37120.50314194002,-36226.23219802764,-24097.10277284417,-33056.374854609356
14398.99377810881,5027.644935565583,-25196.383916900628,-32724.540856425865,-36974.009808779934,-36264.297218835025,-24022.425594618988,-33027.63051123983
14385.649786668992,5024.247470408377,-25220.0544142788,-32730.62053091771,-37132.77424964598,-36280.14460565384,-24149.897593247606,-33096.764456840094
14245.191424511842,5048.968499775947,-25191.287719164815,-32675.970515724483,-37301.50756853909,-36236.17872431025,-24238.432853035076,-33128.74980315564
14232.428578427862,5047.828560808726,-25169.718285765444,-32670.114358677194,-37168.60409600784,-36218.6996601462,-24128.5963807817,-33070.61291582738
14371.434077195416,5020.380618617609,-25196.629786089634,-32727.848914605253,-36982.950506562054,-36261.10091937792,-24026.4712603654,-33033.46431654267
14400.781917665234,5012.758673758349,-25221.015539290376,-32743.092804323773,-37088.38368515774,-36282.826814988475,-24121.980264422928,-33086.415599157284
14259.094209563043,5028.226080921421,-25203.022385003853,-32691.460274632012,-37296.27726033655,-36252.45079427371,-24243.32788507079,-33141.75851842863
14222.52675563416,5044.1181712291445,-25158.96709668244,-32660.681922517055,-37210.245395928076,-36225.628700927344,-24160.87229977516,-33092.45057016022
14359.31943170064,5038.798456048782,-25170.679410777022,-32700.4680276475,-36994.52871018991,-36245.61116047039,-24029.779318544784,-33033.33020607593
14416.741063206324,5024.359229130653,-25212.119544997164,-32735.113231553227,-37054.699606263595,-36278.1105969084,-24098.53328448931,-33079.33009616496
14304.535306040681,5054.355270189675,-25179.441294603505,-32675.434073857556,-37261.87792561983,-36238.32449177796,-24225.64765520664,-33130.29207352306
14221.252706200208,5059.518523158851,-25150.272268089328,-32646.332102576747,-37228.0373845145,-36212.575282165446,-24171.422323158065,-33094.12695099437
14327.378788874006,5035.579804847218,-25165.002067685375,-32695.818864800796,-37013.08065808781,-36245.052366859,-24032.19330694596,-33037.353520077886
14420.831432441644,5016.424359849019,-25203.089440237218,-32734.979121086493,-37018.10980059025,-36284.05616093351,-24068.492539941377,-33067.416616370276
14319.198050403364,5027.868453010136,-25206.330443183237,-32707.70999285102,-37247.66221614626,-36270.04161716004,-24224.84299240625,-33143.56900972951
14223.376121923462,5058.490342913908,-25158.7882827268,-32643.426375797557,-37275.13251008183,-36218.431439212734,-24211.476649221975,-33117.685689650265
14308.983303187288,5045.7051450854715,-25166.41022758606,-32677.624544814178,-37055.19134464161,-36231.17193355226,-24058.4789584254,-33040.505116046086
14420.205583596897,5022.973420974425,-25214.622940376157,-32734.75560364194,-37003.55881494985,-36278.22235563068,-24052.91337405603,-33053.91616271927
14348.612946106548,5033.9034240130695,-25207.917417039564,-32707.173550984095,-37203.539872591486,-36263.738425223644,-24197.663271148598,-33122.13368679687
14215.19538345282,5048.275595697832,-25174.255689889873,-32662.715931262486,-37292.879795179346,-36226.27690151655,-24229.782727930873,-33125.6205589319
14272.05822134712,5045.325165429731,-25169.807692743267,-32687.638126330156,-37098.50902539599,-36235.26230278758,-24088.832627395706,-33057.64890404331
14409.119118347064,5024.046304708279,-25200.586044858224,-32735.403804231144,-36989.32075373182,-36272.27679160557,-24043.413882662524,-33047.85883997189
14370.495303928294,5026.728514042916,-25217.975702044452,-32725.792554115364,-37175.86841295581,-36275.74131199614,-24179.871282562173,-33116.210474516214
14234.239069728741,5050.66723235455,-25178.815445758755,-32669.354399365715,-37301.820492961466,-36233.474163231156,-24239.528088513387,-33132.59430320195
14246.510177434706,5042.508845628363,-25164.532681051813,-32669.55556506581,-37137.22224679259,-36232.08835507493,-24115.475906786432,-33072.378703639355
14385.314510502161,5018.391313361087,-25199.46845763546,-32728.13948728317,-36985.07392228531,-36281.217489387695,-24038.004760504336,-33047.79178473852
14381.581769178125,5014.32329587022,-25223.98832130293,-32737.504868209944,-37137.311653770405,-36296.12610293938,-24162.25810793139,-33115.67403264929
14248.208910013309,5044.274633440332,-25185.610376073168,-32670.80726275531,-37302.513397039584,-36239.46443074518,-24251.016885163415,-33145.04422486356
14238.687066875347,5054.645842867594,-25155.144948380585,-32657.172698637572,-37169.87814544179,-36221.11364854737,-24138.855831486682,-33079.17363395377
14372.529312673727,5029.768351288838,-25186.88442550712,-32716.91891156661,-36983.665762384626,-36263.91723917928,-24028.95230399994,-33035.54302877701
14404.693472944913,5023.666325052539,-25210.957254285488,-32733.14627804116,-37086.23791769003,-36284.97258245618,-24124.774232479842,-33089.2095672142
14263.273985776184,5039.04432523779,-25191.17596044254,-32686.721704807485,-37286.800120687505,-36250.863820417384,-24242.143242614657,-33139.79156491656
14212.982560751745,5052.231854466421,-25157.804805970765,-32659.251410871915,-37206.75852379305,-36223.058250314985,-24154.792625283317,-33088.82958755846
14346.489530383293,5032.182339690011,-25176.423809102038,-32706.279481205882,-36997.47914045801,-36256.98819839814,-24030.226353433893,-33034.67131074325
14414.416481782971,5021.654668051561,-25213.37124268666,-32733.727423397,-37047.1447166377,-36286.78307375706,-24091.738354174897,-33072.7586832951
14295.147573369453,5040.050153738279,-25196.070992478253,-32684.486530361955,-37263.12962330933,-36253.63543672984,-24225.535896484365,-33127.87808512188
14207.57343859356,5046.487456141407,-25168.108960164664,-32655.585724781246,-37246.32111147894,-36224.33229974894,-24185.660384376097,-33098.820817329986
14311.240829377275,5026.415589620542,-25184.8951202506,-32700.535082880866,-37035.16418160965,-36252.45079427371,-24050.164109488025,-33039.387528823325
14414.327074805151,5024.873319253125,-25215.628768876646,-32730.66523440662,-37022.89307390369,-36281.351599854424,-24071.755894631853,-33058.58767731043
14323.757806272246,5044.85577879617,-25198.21675994596,-32689.292155419847,-37237.04513752999,-36256.78703269804,-24217.019881846893,-33121.798410630036
14209.585095594537,5060.1443720036,-25167.997201442387,-32652.724701490966,-37280.206356073184,-36224.578168937944,-24218.070413836293,-33112.94711982574
14297.181582114887,5052.85770331117,-25163.862128718156,-32674.919983735086,-37068.401225614696,-36237.69864293321,-24071.711191142942,-33044.19315388121
14417.501022517805,5030.014220477846,-25202.217722203462,-32722.3727372137,-37000.921309104124,-36274.154338139815,-24056.132025257593,-33043.27673235854
14350.17756821842,5034.149293202078,-25211.80662057479,-32708.447600418047,-37208.8819395163,-36271.002742171615,-24200.993681072436,-33116.25517800512
14226.795938825124,5062.267787726854,-25165.829082230222,-32654.93752419204,-37295.91963242527,-36231.90954111928,-24229.827431419784,-33121.26196876311
14270.560654468616,5056.009299279368,-25155.949611180975,-32665.532251063854,-37105.88510106625,-36237.63158769984,-24089.503179729367,-33051.83745048493
14405.453432256394,5034.126941457623,-25196.093344222707,-32718.75175461194,-36988.15846302015,-36277.79767248603,-24039.301161682746,-33035.20775261018
14375.055059797176,5035.333935658209,-25212.141896741618,-32709.5204841519,-37167.55356401844,-36277.931782952764,-24178.48547440594,-33105.88396857786
14234.328476706563,5052.701241099982,-25173.11575092265,-32646.37680606566,-37303.72039124017,-36231.373099252356,-24241.495042025454,-33123.13951529736
14246.264308245696,5049.102610242679,-25151.568669267737,-32647.047358399315,-37139.63623519376,-36221.13600029183,-24109.19506659449,-33051.479822573645
14389.628397182036,5032.271746667832,-25183.822236516746,-32703.843141060253,-36976.20027973656,-36259.60335249941,-24023.923161497496,-33019.0921448579
14378.854856354577,5012.579859802707,-25221.976664301954,-32724.42909770359,-37128.97445308858,-36283.22914638867,-24151.864546759673,-33089.008401514104
14237.34596220803,5035.132769958112,-25186.638556318114,-32669.04147494334,-37310.1576936433,-36243.1524685803,-24252.000361919447,-33130.91792236781
14212.759043307191,5039.04432523779,-25157.9389164375,-32656.41273932609,-37187.40191309475,-36227.394488739315,-24145.91898273456,-33075.306782163
14353.530329886715,5022.526386085318,-25188.78432378582,-32709.565187640812,-36997.97087883602,-36267.158242125304,-24039.167051216013,-33033.30785433148
14400.066661842664,5021.5205575848295,-25213.527704897846,-32725.90431283764,-37083.26513567747,-36284.36908535589,-24121.734395233918,-33082.07936073296
14270.247730046241,5039.670174082538,-25182.861111505164,-32674.204727912514,-37285.63782997583,-36252.36138729589,-24241.316228069812,-33133.756593913626
14218.838717799035,5052.9247585445355,-25148.685294233,-32647.203820610503,-37218.64965184327,-36222.007718325585,-24164.78385505484,-33086.080322990456
14341.527443114215,5033.925775757525,-25169.003029942876,-32694.433056644568,-37005.92809986211,-36254.55185825251,-24032.036844734772,-33030.089203129915
14414.483537016338,5026.303830898265,-25201.167190214062,-32719.28819647887,-37041.73559447951,-36284.45849233371,-24085.47986572741,-33065.2037936692
14296.846305948056,5042.039458994801,-25191.26536742036,-32677.490434347445,-37264.694245421204,-36259.37983505486,-24230.60974247572,-33128.95096885574
14210.47916537275,5049.326127687232,-25150.339323322693,-32643.13580311964,-37252.06550980396,-36220.71131714718,-24193.461143190998,-33096.58564288445
14312.134899155486,5031.355325145165,-25169.047733431787,-32683.145425694638,-37041.757946223974,-36248.002797127105,-24061.630554393596,-33037.48763054462
14413.254191071295,5010.165871401533,-25212.03013801934,-32729.48059195049,-37027.02814662793,-36287.63244004636,-24080.137798802592,-33058.83354649944
14323.780158016702,5028.918984999536,-25207.202161216996,-32691.683792076565,-37242.00722479907,-36272.65677126131,-24224.328902283778,-33127.49810546614
14216.33532242004,5056.590444635206,-25158.698875748978,-32636.899666416608,-37280.005190373085,-36229.18262829574,-24214.22591378998,-33109.10261977943
14293.068861135109,5048.454409653475,-25157.648343759578,-32664.772291752375,-37070.56934482686,-36236.961035366185,-24072.404095221056,-33039.812211967976
14414.595295738614,5024.269822152833,-25195.93688201152,-32715.04136503236,-37000.25075677047,-36281.99980044363,-24059.10480727015,-33044.126098647845
14348.165911217442,5024.068656452734,-25208.789135073323,-32699.730420080476,-37207.384372637796,-36282.044503932535,-24205.307567752312,-33120.07732630698
14216.894116031423,5046.822732308237,-25170.053561932276,-32645.683901987544,-37306.20143487471,-36237.13984932183,-24241.89737342565,-33127.09577406594
14264.704497421324,5046.9344910305135,-25159.16826238254,-32656.859774215198,-37121.598377418326,-36240.06792784547,-24104.72471770343,-33059.32528487746
14410.90725790349,5033.836368779704,-25184.8951202506,-32704.42428641609,-36991.153596777156,-36276.32245735198,-24045.179670474492,-33039.87926720134
14383.481667456826,5035.6692118250385,-25203.201198959494,-32705.36305968321,-37162.52442151599,-36283.85499523342,-24176.540872638332,-33105.88396857786
14245.593755912038,5062.312491215765,-25169.248899131882,-32646.84619269922,-37309.39773433182,-36244.024186614064,-24250.592202018765,-33133.93540786927
14257.417828728894,5065.642901139606,-25142.896192419077,-32638.88897167313,-37147.90638064222,-36223.43822997072,-24119.52157253284,-33058.85589824389
14390.56717044916,5032.741133301393,-25179.97773647043,-32703.552568382333,-36982.45876818404,-36269.393416570834,-24031.723920312397,-33027.65286298429
14395.171629806951,5026.370886131631,-25206.84453330571,-32713.81201908732,-37120.4584384511,-36292.16984417079,-24147.416549613066,-33093.97048878318
14251.047581559133,5038.932566515514,-25183.822236516746,-32668.885012732153,-37310.068286665475,-36256.85408793141,-24256.47071081051,-33136.50585848163
14225.47718590226,5052.611834122162,-25153.22269835743,-32652.814108468785,-37203.383410380295,-36235.88815163233,-24159.710009063485,-33083.66633458929
14361.644013123992,5032.42820887902,-25174.680373034524,-32702.85966430422,-36997.21091952454,-36273.863765461894,-24030.09224296716,-33027.40699379528
14408.113289846575,5026.594403576184,-25208.833838562234,-32720.76341161292,-37081.94638275461,-36293.4662453492,-24111.564351506753,-33072.57986933945
14282.675299963392,5048.432057909019,-25183.576367327736,-32667.856832487207,-37284.43083577524,-36251.3555587954,-24231.950847143038,-33119.60793967342
14223.53258413465,5064.324148216742,-25141.711549962947,-32631.4011372806,-37226.85274205837,-36216.330375233934,-24162.92866026505,-33076.62553508586
14356.324297943629,5055.986947534913,-25147.970038410433,-32668.952067965518,-37005.70458241756,-36243.331282535946,-24021.866801007607,-33012.43132501022
14427.358141822595,5032.584671090206,-25192.56176859877,-32711.554492897332,-37038.02520489993,-36281.50806206561,-24075.75685688935,-33052.91033421878
14316.113509668532,5054.958767289969,-25178.480169591927,-32657.88795446014,-37256.245286017096,-36247.53341049355,-24216.908123124616,-33113.30474773702
14222.683217845348,5074.1142122881665,-25139.92341040652,-32614.07853532774,-37256.60291392838,-36210.20599725318,-24185.995660542925,-33086.39324741283
14319.846250992567,5057.104534757678,-25148.528832021813,-32653.529364291357,-37040.75211772348,-36232.490686475125,-24043.972676273905,-33019.76269719156
14415.399958539005,5024.426284364019,-25194.863998277666,-32711.53214115288,-37020.97082388053,-36285.6654865343,-24063.99983930586,-33048.43998532772
14331.938544742889,5039.223139193433,-25184.02340221684,-32675.14350117964,-37229.78082058201,-36269.59458227093,-24205.799306130328,-33114.08705879296
14212.379063651451,5058.8479708251925,-25150.96517216744,-32628.048375612307,-37288.27533582155,-36227.97563409515,-24214.114155067702,-33105.571044155484
14279.277834806186,5044.207578206966,-25146.293657576283,-32655.6080765257,-37076.69372280761,-36234.94937836521,-24065.27388873981,-33029.08337462942
14404.335845033627,5023.956897730458,-25188.203178429983,-32708.514655651412,-36992.338239233286,-36281.37395159888,-24042.05042625075,-33030.20096185219
14345.260184438252,5019.598307561673,-25200.206065202485,-32695.416533400603,-37192.207538152645,-36280.882213220866,-24189.16960825558,-33104.520512166084
14213.38489215194,5041.681831083516,-25162.342210095194,-32638.620750739665,-37300.61349876088,-36234.83761964293,-24234.633056477673,-33112.41067795881
14253.10394204902,5039.379601404619,-25153.289753590794,-32654.311675347293,-37117.9103395832,-36233.13888706433,-24095.761668176852,-33043.58965678092
14387.125001803042,5012.266935380332,-25197.59091110121,-32716.89655982215,-36992.58410842229,-36285.77724525658,-24039.658789594032,-33032.63730199782
14361.286385212707,5012.401045847064,-25218.55684740029,-32711.71095510852,-37160.535116259474,-36294.87440524989,-24169.142445223624,-33102.35239295392
14222.10207248951,5037.23383393691,-25180.55888182627,-32653.328198591258,-37315.72327801267,-36249.92504715026,-24250.681608996583,-33127.20753278823
14224.471357401771,5041.346554916687,-25158.229489115416,-32649.32723633376,-37168.090005885366,-36236.73751792163,-24130.16100289357,-33061.56045932299
14370.294138228195,5020.000638961868,-25182.7940562718,-32704.13371373817,-36990.14776827666,-36275.964829440694,-24030.785147045273,-33024.50126701609
14391.640054183013,5024.247470408377,-25207.8503618062,-32709.386373685167,-37112.076534280364,-36294.9638122277,-24136.039511685314,-33082.34758166642
14260.904700863923,5052.120095744145,-25171.08174217722,-32644.678073487055,-37298.534786526536,-36243.08541334694,-24243.171422859603,-33121.396079229846
14225.566592880083,5059.250302225388,-25135.07308185972,-32621.164038320072,-37196.49907308806,-36216.71035488968,-24149.607020569685,-33067.9530582372
14351.40691416346,5034.685735069005,-25169.293602620794,-32683.167777439092,-36996.00392532396,-36258.351654809914,-24027.588847588166,-33019.85210416938
14400.558400220682,5018.8159965057375,-25202.351832670192,-32713.38733594267,-37075.3526181403,-36292.84039650445,-24107.25046482688,-33071.886965261336
14277.556750483127,5043.42526715103,-25180.78239927082,-32658.26793411588,-37285.19079508672,-36253.74719545212,-24233.917800655105,-33121.105506551925
14210.926200261856,5056.545741146296,-25141.845660429677,-32625.634387211132,-37234.74290785109,-36215.32454673345,-24167.3543056672,-33073.295125162025
14331.580916831605,5035.736267058404,-25160.39760832758,-32671.746036022432,-37016.34401277829,-36242.75013718011,-24025.308969653724,-33011.22433080964
14411.71192070388,5021.855833751659,-25201.815390803265,-32701.317393936803,-37041.33326307932,-36284.011457444605,-24078.729638901907,-33049.28935161702
14307.418681075416,5041.078333983223,-25189.007841230374,-32656.815070726287,-37263.66606517626,-36258.12813736536,-24225.13356508417,-33113.43885820376
14211.440290384327,5055.405802179075,-25150.853413445166,-32618.88416038563,-37272.22678330264,-36220.91248284727,-24200.88192235016,-33087.86846254688
14300.266122849718,5036.563281603251,-25164.197404884984,-32652.635294513144,-37062.41095810067,-36242.5042679911,-24066.391475962577,-33027.295235073
14420.674970230457,5026.8626245096475,-25192.02532673184,-32689.828597286774,-37014.846445899784,-36277.596506785936,-24063.28458348329,-33036.32533983295
14337.884108768,5032.629374579117,-25194.349908155193,-32665.733416763953,-37229.289082204,-36268.901678192815,-24204.525256696375,-33107.49329417864
14216.380025908951,5049.616700365151,-25156.240183858896,-32616.850151640196,-37301.30640283899,-36225.6510526718,-24221.758451671416,-33102.307689465015
14280.35071854004,5041.279499683321,-25149.221736099928,-32638.486640272935,-37094.08337999384,-36230.61313994088,-24073.544034188275,-33029.3962990518
14409.99083638082,5015.597345304173,-25195.825123289243,-32701.205635214526,-36998.26145151394,-36279.831681231466,-24037.13304247058,-33026.021185639045
14364.482684669816,5028.762522788349,-25198.5967396017,-32685.380600140168,-37190.30763987394,-36278.08824516395,-24178.35136393921,-33097.0103260291
14230.036941771144,5049.907273043069,-25151.680427990013,-32621.476962742447,-37304.65916450729,-36225.718107905166,-24226.452318007032,-33108.00738430111
14267.520817222694,5052.343613188697,-25129.887477146087,-32626.26023605588,-37123.43122046366,-36220.06311655797,-24081.188330791992,-33035.72184273265
14411.71192070388,5036.831502536715,-25162.565727539746,-32679.747960537432,-36976.35674194774,-36261.95028566722,-24004.298329865735,-33012.3419180324
14393.539952461715,5028.226080921421,-25189.141951697107,-32689.18039669757,-37139.1668485602,-36279.02701843107,-24133.31259886177,-33085.92386077927
14250.309973992107,5047.694450341994,-25160.39760832758,-32638.93367516204,-37305.57558602996,-36241.05140460151,-24222.853687149727,-33119.295015251046
14242.665677388391,5048.476761397929,-25143.99142789739,-32640.78886995183,-37174.84023271087,-36233.4518114867,-24114.58183700822,-33064.64500005782
14381.201789522385,5025.253298908866,-25174.814483501254,-32696.33295492327,-36992.00296306646,-36274.221393373184,-24009.37217585709,-33028.546932762496
14401.832449654634,5017.720761027427,-25209.303225195796,-32713.94612955405,-37107.1591505002,-36295.92493723929,-24107.406927038068,-33088.71782883618
14270.359488768518,5046.420400908041,-25177.429637602527,-32654.579896280757,-37299.786484216034,-36254.149526852314,-24218.98683535896,-33132.8178206465
14232.875613316968,5056.165761490555,-25142.225640085417,-32632.876352414653,-37200.947070234666,-36225.96397709417,-24128.417566826054,-33080.067703731984
14363.856835825067,5035.155121702566,-25166.253765374873,-32689.56037635331,-36990.81832061033,-36257.12230886487,-24001.459658319913,-33026.46822052816
14416.76341495078,5020.492377339885,-25201.346004169704,-32717.14242901116,-37055.19134464161,-36286.85012899043,-24072.024115565317,-33072.89279376183
14298.835611204579,5049.57199687624,-25177.0943614357,-32650.154250878604,-37264.53778321001,-36245.58880872593,-24198.82556186027,-33126.67109092129
14224.225488212764,5063.452430182985,-25138.35878829465,-32615.7996196508,-37217.12973322031,-36207.27791872954,-24131.88208721663,-33081.63232584385
14330.955067986855,5037.591461848195,-25160.509367049857,-32676.864585502695,-37002.57533819382,-36242.99600636912,-23993.94947218293,-33026.647034483794
14416.964580650876,5014.815034248238,-25206.106925738684,-32729.65940590613,-37017.81922791234,-36288.52650982458,-24040.1728797165,-33066.32138089197
14313.699521267357,5026.125016942623,-25204.966986771466,-32695.058905489317,-37242.94599806619,-36267.448814803225,-24195.808076358808,-33141.80322191754
14214.569534608072,5052.902406800081,-25162.49867230638,-32648.902553189106,-37266.61649544436,-36225.159314293785,-24183.78283784185,-33122.98305308617
14307.999826431254,5048.610871864662,-25156.12842513662,-32677.110454691705,-37045.37892882573,-36239.03974760053,-24032.215658690413,-33050.2504766286
14411.466051514872,5013.742150514383,-25203.536475126326,-32736.029653075893,-36993.67934390061,-36279.71992250919,-24024.12432719759,-33062.16395642328
14338.755826801756,5028.673115810528,-25207.671547850558,-32710.638071374666,-37197.75077077756,-36269.28165784856,-24167.980154511948,-33132.504896224134
14217.47526138726,5048.7002788424825,-25162.476320561927,-32652.344721835223,-37270.68451293522,-36224.444058471214,-24186.3085849653,-33127.967492099706
14275.9697766268,5039.804284549271,-25158.296544348785,-32675.501129090924,-37070.72580703805,-36230.7025469187,-24043.5256413848,-33058.09593893241
14402.480650243837,5012.512804569341,-25197.434448890028,-32733.57096118581,-36975.01563728043,-36277.97648644167,-24008.925140967982,-33056.53131682054
14366.807266093168,5022.392275618587,-25203.31295768177,-32716.963615055516,-37160.2221918371,-36274.780186984564,-24145.226078656447,-33123.072460063995
14228.606430126005,5044.252281695876,-25167.103131664175,-32665.84517548623,-37286.28603056503,-36235.351709765404,-24206.559265441807,-33141.46794575071
14254.0650670606,5042.933528773014,-25153.245050101883,-32670.248469143924,-37119.497313439526,-36232.4012794973,-24078.43906622399,-33076.62553508586
14399.485516486826,5025.096836697679,-25183.688126050012,-32717.85768483373,-36969.807680822334,-36271.27096310508,-24002.957225198417,-33049.1999446392
14394.009339095277,5023.37575237462,-25205.346966427205,-32722.529199424887,-37122.02306056298,-36283.00562894412,-24127.836421470216,-33112.18716051426
14260.658831674915,5053.192979478,-25168.64540203159,-32661.196012639528,-37287.02363813206,-36238.36919526687,-24217.35515801372,-33143.09962309595
14246.286659990152,5051.248377710388,-25143.007951141353,-32647.717910732976,-37149.53805798746,-36218.431439212734,-24098.935615889506,-33076.51377636359
14381.648824411492,5023.018124463335,-25177.161416669063,-32709.744001596453,-36969.65121861115,-36261.88323043385,-23998.88920770755,-33036.77237472205
14417.545726006714,5018.033685449802,-25201.70363208099,-32722.216275002516,-37077.900717008204,-36279.116425408894,-24099.427354267522,-33089.65660210331
14285.40221278694,5041.055982238768,-25175.50738757937,-32663.18531789605,-37273.7467019256,-36237.229256299644,-24216.192867302045,-33135.9694166147
14231.24393597173,5048.454409653475,-25148.46177678845,-32640.99003565193,-37194.55447132045,-36212.24000599862,-24134.67605527354,-33085.07449448997
14355.139655487497,5024.873319253125,-25175.194463156997,-32693.986021755463,-36988.65020139816,-36254.373044296866,-24010.310949124214,-33035.40891831028
14424.56417376568,5019.486548839396,-25203.268254192863,-32715.935434810573,-37040.57330376784,-36277.2612306191,-24070.23597600889,-33071.84226177243
14297.628617003993,5032.741133301393,-25193.56759709926,-32673.69063779004,-37260.715634908156,-36252.964884396184,-24209.040309076347,-33131.92375086829
14216.894116031423,5042.084162483712,-25155.74844548088,-32641.615884496678,-37236.240474729595,-36211.70356413169,-24161.02876198635,-33096.27271846208
14322.729626027301,5026.482644853908,-25172.489902077905,-32685.89469026264,-37018.42272501263,-36243.59950346941,-24020.369234129103,-33038.91814218976
14425.704112732901,5020.939412228991,-25201.50246638089,-32717.544760411354,-37010.04082084189,-36273.729654995164,-24045.492594896867,-33059.28058138854
14331.960896487344,5043.134694473111,-25192.07003022075,-32680.03853321535,-37225.355175179866,-36254.574209996965,-24192.164742012592,-33126.73814615466
14220.313932933084,5054.690546356505,-25160.8893467056,-32642.733471719443,-37264.31426576546,-36221.42657296974,-24188.186131499548,-33114.48939019315
14305.272913607707,5045.191054962999,-25159.727055993924,-32672.41658835609,-37046.89884744869,-36231.88718937483,-24039.010589004825,-33042.27090385806
14424.273601087762,5019.821825006226,-25203.98351001543,-32724.540856425865,-36990.84067235478,-36276.56832654099,-24032.930914512985,-33053.17855515225
14354.916138042945,5026.370886131631,-25200.921321025053,-32698.3669636687,-37194.21919515362,-36269.92985843776,-24174.059829003792,-33122.33485249697
14227.24297371423,5046.66627009705,-25155.904907692064,-32645.862715943185,-37277.03240836053,-36230.54608470751,-24200.25607350541,-33124.86059962041
14279.88133190648,5042.933528773014,-25149.579364011213,-32661.46423357299,-37081.36523739877,-36234.658805687286,-24056.266135724323,-33055.12315691986
14413.835336427133,5018.167795916534,-25186.213873173463,-32721.880998835684,-36973.71923610201,-36279.27288762008,-24015.65301604903,-33048.90937196128
14379.860684855066,5026.102665198167,-25199.490809379913,-32709.788705085364,-37155.014235379014,-36276.05423641852,-24157.36307589568,-33118.02096581709
14246.599584412526,5053.885883556114,-25158.251840859873,-32648.07553864426,-37280.27341130655,-36226.83569512793,-24207.252169519925,-33126.67109092129
14259.138913051953,5046.107476485668,-25148.148852366074,-32651.74122473493,-37120.81606636239,-36223.751154393096,-24079.91428135804,-33060.68874128923
14401.072490343153,5029.6789443110165,-25180.22360565944,-32702.85966430422,-36965.40438716464,-36265.07952989096,-24001.92904495347,-33032.793764209004
14410.147298592008,5033.366982146142,-25190.639518575612,-32697.204672957025,-37099.11252249629,-36266.64415200283,-24110.469116028442,-33087.15320672431
14271.812352158113,5054.690546356505,-25163.035114173308,-32641.012387396386,-37276.451263004696,-36233.340052764426,-24212.773050400385,-33124.43591647576
14249.259442002707,5057.775087091338,-25141.957419151953,-32633.546904748313,-37159.5739912479,-36223.50528520409,-24115.162982364058,-33073.16101469529
14386.432097724928,5037.6585170815615,-25169.83004448772,-32693.27076593289,-36966.58902962077,-36260.6091809999,-24003.292501365246,-33026.311758316966
14416.94222890642,5019.017162205835,-25204.139972226618,-32717.008318544427,-37069.518812837465,-36288.213585402205,-24102.86952291364,-33083.06283748899
14281.602416229536,5037.256185681365,-25181.296489393295,-32665.7110650195,-37271.690341435715,-36253.16605009628,-24223.390129016654,-33133.53307646907
14228.919354548378,5047.001546263879,-25145.466643031436,-32640.185372851538,-37198.73424753359,-36228.51207596208,-24143.5496978223,-33084.02396250057
14354.379696176016,5027.42141812103,-25159.88351820511,-32687.213443185505,-36980.91649781662,-36253.43427102974,-24005.37121359959,-33022.55666524848
14422.32899932015,5011.7751970023155,-25198.66379483507,-32718.505885422932,-37027.25166407248,-36288.10182667993,-24069.900699842063,-33063.415654112774
14308.11158515353,5035.535101358307,-25185.297451650793,-32673.08714068975,-37247.55045742398,-36258.59752399892,-24213.22008528949,-33126.492276965655
14223.62199111247,5047.560339875262,-25140.43750052899,-32634.530381504344,-37224.2375879571,-36222.633567170335,-24162.615735842675,-33090.64007885934
14321.567335315625,5025.141540186589,-25158.654172260067,-32680.105588448718,-37010.309041775356,-36255.065948374984,-24024.839583020163,-33033.3972613093
14422.776034209257,5013.339819114187,-25194.863998277666,-32721.5233709244,-36998.37321023622,-36287.923012724284,-24044.50911814083,-33056.441909842724
14332.36322788754,5031.645897823084,-25189.16430344156,-32681.826672771775,-37211.09476221738,-36268.74521598163,-24187.31441346579,-33121.28432050757
14235.222546484774,5060.703165614983,-25133.06142485874,-32625.23205581094,-37243.28127423302,-36220.15252353579,-24178.798398828316,-33099.44666617473
14313.207782889342,5047.985023019913,-25137.30825630525,-32654.579896280757,-37031.38673679671,-36232.87066613086,-24027.141812699057,-33029.21748509616
14426.978162166854,5015.798511004271,-25185.990355728907,-32710.883940563675,-36970.9252680451,-36282.893870221844,-24018.335225383667,-33041.332130590934
14355.385524676505,5023.018124463335,-25192.181788943028,-32690.789722298352,-37175.08610189988,-36278.42352133078,-24167.22019520047,-33111.96364306971
14221.118595733476,5038.887863026603,-25157.11190189265,-32638.263122828383,-37270.572754212946,-36234.74821266511,-24201.194846772534,-33112.567140169995
14272.505256236227,5032.830540279215,-25149.467605288937,-32656.390387581636,-37077.65484781919,-36232.66950043076,-24059.551842159253,-33038.82873521194
14415.936400405932,5021.006467462357,-25182.861111505164,-32706.123018994695,-36953.960294003526,-36270.60041077142,-24001.459658319913,-33019.472124513646
14383.079336056631,5020.671191295528,-25206.151629227596,-32698.903405535628,-37135.83643863636,-36280.50223356512,-24138.2970378753,-33091.78001782656
14244.185596011353,5039.960746760457,-25170.545300310292,-32642.17467810806,-37281.59216422941,-36238.860933644886,-24213.2647887784,-33115.226997760175
14261.083514819566,5044.7663718183485,-25143.678503475014,-32640.185372851538,-37116.68099363816,-36218.40908746828,-24080.24955752487,-33044.483726559134
14401.094842087608,5019.888880239592,-25180.469474848447,-32703.70903059352,-36955.50256437094,-36264.34192232393,-23991.401373315024,-33013.75007793309
14406.034577612232,5017.5866505606955,-25206.71042283898,-32709.29696670735,-37097.749066084514,-36281.39630334333,-24111.92197941804,-33080.04535198752
14263.676317176381,5041.52536887233,-25177.206120157975,-32649.193125867027,-37277.05476010499,-36233.02712834205,-24211.677814922074,-33117.12689603888
14234.909622062401,5042.553549117273,-25154.563803024746,-32642.88993393063,-37165.36309306182,-36218.6996601462,-24112.033738140315,-33061.11342443388
14370.048269039187,5018.771293016826,-25184.202216172485,-32705.206597472024,-36979.28482047139,-36266.89002119184,-24009.37217585709,-33028.278711829036
14421.077301630654,5018.324258127721,-25205.190504216018,-32717.90238832264,-37062.14273716721,-36285.73254176766,-24090.173732063024,-33073.80921528449
14290.900741922946,5031.355325145165,-25185.096285950698,-32670.85196624422,-37266.035350088525,-36252.4060907848,-24212.50482946692,-33124.19004728676
14231.445101671829,5042.8888252841025,-25156.73192223691,-32648.164945622084,-37208.211387182644,-36229.49555271811,-24146.58953506822,-33085.54388112353
14354.692620598391,5022.504034340863,-25174.16628291205,-32696.623527601187,-36998.2838032584,-36259.80451819951,-24015.474202093388,-33028.83750544042
14424.161842365485,5004.399121332064,-25215.360547943183,-32737.393109487668,-37033.53250426442,-36298.361277384916,-24073.92401384402,-33069.29416290452
14308.268047364718,5020.201804661966,-25204.65406234909,-32696.735286323463,-37256.42409997274,-36275.00370442912,-24216.08110857977,-33133.55542821353
14224.225488212764,5043.559377617762,-25158.430654815515,-32652.41177706859,-37245.35998646736,-36227.43919222822,-24174.797436570818,-33101.72654410917
14330.060998208643,5035.468046124941,-25164.711495007457,-32682.5642803388,-37021.66372795865,-36242.25839880209,-24027.588847588166,-33031.45265954169
14437.349371594117,5019.710066283949,-25195.93688201152,-32721.255149990935,-36996.450960213064,-36277.97648644167,-24043.14566172906,-33047.210639382676
14344.053190237664,5022.392275618587,-25193.433486632526,-32691.6167368432,-37206.71382030414,-36260.519774022076,-24181.748829096417,-33110.331965724465
14229.142871992932,5051.158970732567,-25158.475358304426,-32640.498297273913,-37261.408538986274,-36224.444058471214,-24182.44173317453,-33101.83830283145
14304.870582207512,5049.281424198321,-25153.557974524258,-32663.207669640506,-37051.257437617474,-36233.340052764426,-24035.65782733653,-33031.765583964065
14433.23665061434,5026.437941364997,-25186.12446619564,-32715.175475499094,-36970.94761978956,-36275.65190501832,-24013.060213692217,-33033.218447353654
14371.165856261952,5029.544833844285,-25200.787210558323,-32699.082219491273,-37174.7731774775,-36276.14364339634,-24161.431093386545,-33106.152189511326
14237.860052330501,5052.589482377706,-25160.732884494413,-32646.242695598925,-37285.30255380899,-36237.49747723311,-24205.575788685775,-33115.875198349386
14283.234093574774,5052.164799233055,-25149.199384355474,-32653.03762591334,-37092.4069991597,-36227.7521166506,-24057.875461325108,-33039.92397069025
14412.807156182189,5016.871394738126,-25195.869826778155,-32718.304719722837,-36973.49571865746,-36278.200003886224,-24010.93679796896,-33031.72088047515
14398.055004841686,5025.4544646089635,-25201.860094292177,-32705.117190494206,-37135.27764502497,-36278.490576564145,-24137.693540775006,-33093.81402657199
14254.735619394258,5042.866473539648,-25170.768817754844,-32651.51770729038,-37284.207318330686,-36237.89980863331,-24213.533009711864,-33114.86936984889
14253.483921704761,5039.133732215611,-25151.12163437863,-32651.025968912363,-37139.144496815745,-36230.14375330732,-24098.10860134466,-33055.1008051754
14405.051100856197,5030.058923966757,-25177.586099813714,-32691.8179025433,-36967.572506376804,-36262.28556183405,-24001.884341464563,-33019.27095881355
14418.775071951757,5026.8626245096475,-25202.195370459005,-32706.43594341707,-37094.79863581641,-36281.016323687596,-24112.279607329325,-33078.816006042485
14273.242863803252,5043.604081106673,-25179.016611458854,-32659.89961146112,-37283.0003241301,-36251.66848321778,-24222.49605923844,-33124.21239903121
14245.794921612136,5055.5622643902625,-25140.102224362163,-32630.462364013478,-37176.762482734026,-36220.800724124994,-24123.902514446083,-33064.913220991286
14387.840257625612,5037.94908975948,-25156.12842513662,-32673.534175578854,-36967.728968587995,-36246.818154670975,-23991.379021570567,-33007.62569995233
14428.028694156254,5016.983153460402,-25199.960196013475,-32710.973347541494,-37051.548010295395,-36284.68200977826,-24078.103790057157,-33062.96861922367
14294.141744868964,5032.875243768125,-25177.474341091438,-32662.961800451496,-37263.1966785427,-36254.55185825251,-24213.108326567213,-33118.110372794916
14226.281848702652,5041.57007236124,-25144.013779641842,-32629.41183202408,-37213.0840674739,-36224.108782304385,-24149.91994499206,-33075.239726929634
14350.669306596435,5032.137636201101,-25159.59294552719,-32667.588611553743,-36996.36155323524,-36250.75206169511,-24010.892094480052,-33013.8394849109
14427.939287178433,5018.65953429455,-25203.245902448405,-32710.52631265239,-37025.0388413714,-36290.22524240318,-24062.457568938444,-33050.96573245117
14314.571239301114,5030.640069322595,-25196.048640733796,-32671.70133253352,-37247.99749231309,-36269.21460261519,-24209.532047454366,-33119.920864095795
14226.281848702652,5055.651671368083,-25144.751387208868,-32621.83459065373,-37245.24822774508,-36222.05242181449,-24176.429113916056,-33088.20373871371
14328.719893541323,5051.404839921575,-25144.997256397877,-32654.378730580658,-37018.71329769055,-36238.436250500235,-24018.715205039407,-33013.235987810614
14438.578717539158,5029.276612910821,-25184.045753961298,-32698.79164681335,-36986.77265486392,-36275.67425676277,-24031.3215889122,-33031.00562465258
14356.659574110457,5040.117208971645,-25183.8445882612,-32673.154195923114,-37200.12005568982,-36260.944457166726,-24181.03357327385,-33099.848997574925
14237.72594186377,5059.76439234786,-25147.008913398855,-32622.616901709665,-37260.492117463604,-36220.51015144708,-24189.862512333693,-33088.248442202625
14309.609152032037,5054.6234911231395,-25137.68823596099,-32642.621712997166,-37049.6928155056,-36224.377003237845,-24038.451795393445,-33017.12519134583
14429.928592434955,5022.571089574229,-25186.012707473365,-32706.212425972513,-36962.208087707535,-36276.85889921891,-24011.60735030262,-33021.93081640373
14372.976347562832,5023.621621563629,-25204.922283282554,-32697.271728190393,-37164.84900293934,-36281.08337892096,-24162.48162537594,-33100.22897723067
14238.10592151951,5049.95197653198,-25164.59973628518,-32642.50995427489,-37280.631039217835,-36235.642282443325,-24210.068489321293,-33109.23673024616
14277.601453972036,5050.846046310192,-25143.79026219729,-32640.40889029609,-37098.24080446253,-36232.93772136423,-24073.119351043624,-33037.130002633334
14416.808118439689,5030.28244141131,-25174.255689889873,-32693.986021755463,-36954.78730854837,-36268.074663647974,-24001.392603086544,-33010.53142673152
14396.244513540807,5028.8519297661705,-25197.814428545767,-32692.309640921314,-37120.79371461794,-36274.13198639536,-24135.01133144037,-33080.425331643266
14253.238052515753,5050.443714909997,-25169.427713087527,-32639.291303073325,-37283.53676599703,-36234.94937836521,-24219.23270454797,-33108.879102334875
14245.638459400949,5048.744982331394,-25147.098320376674,-32635.849134427208,-37145.00065386303,-36226.03103232754,-24102.556598491265,-33046.74125274912
14384.487495957315,5022.6381448075945,-25184.85041676169,-32701.406800914625,-36972.26637271242,-36272.053274161015,-24008.99219620135,-33014.01829886655
14415.690531216924,5028.226080921421,-25197.523855867847,-32699.6186613582,-37081.47699612105,-36282.42448358828,-24101.707232201963,-33066.74606403662
14274.092230092554,5045.258110196365,-25172.154625911073,-32646.80148921031,-37275.244268804105,-36244.62768371435,-24212.393070744645,-33110.86840759139
14234.10495926201,5054.131752745122,-25143.454986030458,-32629.45653551299,-37181.83632872538,-36222.99119508162,-24124.841287713207,-33058.54297382152
14367.723687615835,5037.882034526114,-25169.338306109705,-32677.736303536454,-36978.30134371536,-36252.42844252926,-24003.068983920693,-33005.07760108443
14418.61860974057,5023.241641907888,-25207.89506529511,-32706.3688881837,-37052.08445216232,-36287.63244004636,-24079.757819146853,-33054.51965981956
14301.339006583574,5048.454409653475,-25185.096285950698,-32659.005541682905,-37261.65440817528,-36256.07177687547,-24209.152067798623,-33109.12497152388
14233.188537739343,5062.424249938042,-25146.20425059846,-32620.046451097307,-37218.9849280101,-36217.738535134624,-24150.92577349255,-33066.16491868078
14344.142597215487,5035.848025780681,-25161.537547294804,-32669.80143425482,-37001.837730626794,-36247.89103840483,-24007.33816711166,-33007.53629297451
14427.492252289327,5019.397141861576,-25201.79303905881,-32713.163818498117,-37019.71912619104,-36291.61105055941,-24050.499385654854,-33043.14262189181
14334.531347099704,5048.543816631296,-25179.485998092416,-32661.017198683883,-37233.67002411724,-36258.17284085427,-24194.55637866931,-33104.09582902143
14237.569479652582,5067.207523251477,-25138.44819527247,-32613.87736962764,-37242.543666665995,-36213.78227636603,-24168.24837544541,-33075.06091297399
14324.853041750555,5049.907273043069,-25145.868974431633,-32657.172698637572,-37024.904730904665,-36239.196209811715,-24018.13405968357,-33010.62083370934
14431.739083735834,5025.834444264704,-25186.37033538465,-32702.47968464848,-36978.41310243763,-36282.960925455205,-24021.66563530751,-33025.86472342786
14358.782989833713,5040.966575260946,-25186.057410962276,-32674.31648663479,-37192.207538152645,-36270.80157647152,-24174.730381337453,-33098.4631894187
14243.67150588888,5069.0627180412675,-25142.7844336968,-32615.55375046179,-37259.37453024084,-36222.52180844806,-24187.96261405499,-33086.572061368475
14302.188372872875,5054.8023050787815,-25142.49386101888,-32642.08527113024,-37061.94157146711,-36233.13888706433,-24044.017379762816,-33019.6956419582
14428.252211600806,5023.666325052539,-25187.59968132969,-32700.982117769974,-36966.253753453944,-36280.457530076215,-24009.483934579366,-33017.236950068116
14379.74892613279,5023.174586674522,-25204.519951882357,-32689.694486820044,-37159.43988078116,-36283.9667539557,-24154.703218305498,-33089.298974192025
14247.761875124203,5047.38152591962,-25159.36942808264,-32627.422526767557,-37279.04406536151,-36237.40807025529,-24205.799306130328,-33097.904395807316
14284.575198242093,5055.584616134717,-25131.6309132136,-32629.478887257446,-37098.39726667372,-36222.72297414816,-24062.971659060917,-33024.545970504994
14422.306647575695,5030.841235022693,-25173.5404340673,-32688.53219610837,-36958.09536672776,-36270.108672393406,-23994.530617538767,-33007.87156914134
14417.456319028894,5033.814017035248,-25188.896082508098,-32681.692562305045,-37117.50800818301,-36278.66939051979,-24120.72856673343,-33070.32234314947
14275.746259182246,5051.315432943754,-25153.513271035346,-32627.489582000922,-37282.93326889673,-36240.69377669022,-24208.213294531502,-33100.5642533975
14267.92314862289,5055.070526012245,-25134.268419059328,-32622.058108098285,-37153.7178342006,-36228.087392817426,-24101.416659524046,-33045.98129343764
14408.13564159103,5035.244528680388,-25162.342210095194,-32671.567222066788,-36974.05451226884,-36265.75008222462,-24005.170047899494,-33010.97846162062
14434.9577349374,5028.404894877064,-25193.232320932428,-32691.527329865377,-37083.89098452222,-36285.39726560083,-24102.802467680274,-33063.59446806842
14304.848230463056,5054.779953334326,-25169.47241657644,-32632.898704159106,-37278.08294034993,-36245.208829070194,-24213.153030056124,-33104.520512166084
14264.928014865878,5073.711880887971,-25133.240238814386,-32605.36135499017,-37186.86547122782,-36214.0504972995,-24120.5944562667,-33048.84231672792
14391.818868138656,5052.902406800081,-25159.771759482832,-32660.346646350226,-36974.81447158033,-36245.78997442603,-23988.383887813558,-32991.62185092233
14450.827473500667,5031.5564908452625,-25191.04184997581,-32692.689620577054,-37033.80072519788,-36282.58094579947,-24056.84728108016,-33038.6499212563
14324.204841161352,5037.6585170815615,-25178.636631803114,-32653.59641952472,-37256.17823078373,-36257.725805965165,-24200.479590949966,-33102.33004120947
14245.258479745207,5051.136618988111,-25139.968113895433,-32614.592625450212,-37229.37848918182,-36219.45961945768,-24155.843157272717,-33066.47784310315
14361.845178824089,5034.596328091184,-25148.752349466366,-32657.84325097123,-37002.84355912728,-36243.48774474714,-24009.595693301642,-32999.84729288188
14446.848862987623,5014.211537147944,-25193.12056221015,-32703.217292215504,-37009.92906211961,-36289.48763483616,-24046.699589097454,-33030.849162441395
14350.98223101881,5038.239662437399,-25185.632727817625,-32658.379692838156,-37229.69141360419,-36267.292352592034,-24192.857646090706,-33098.12791325187
14247.29248849064,5051.963633532958,-25140.526907506814,-32612.89389287161,-37250.61264641436,-36225.96397709417,-24176.25029996041,-33076.37966589686
14330.239812164285,5040.251319438376,-25149.020570399833,-32644.812183953785,-37042.00381541298,-36247.53341049355,-24033.80263254674,-33013.34774653289
14445.284240875751,5019.799473261771,-25186.638556318114,-32700.42332415859,-36984.13514901819,-36279.71992250919,-24026.38185338758,-33018.60040647988
14372.529312673727,5027.890804754592,-25189.052544719285,-32673.869451745686,-37187.513671817025,-36272.835585216955,-24170.97528826896,-33085.812102056996
14245.124369278476,5047.672098597539,-25151.479262289915,-32616.60428245119,-37272.00326585809,-36229.18262829574,-24191.44948619002,-33083.46516888919
14300.623750761004,5041.279499683321,-25145.801919198268,-32639.961855406986,-37071.95515298309,-36230.47902947415,-24042.877440795593,-33011.87253139884
14430.71090349089,5022.571089574229,-25184.8951202506,-32698.054039246326,-36961.55988711833,-36273.84141371744,-23997.995137929338,-33002.10481907187
14391.70710941638,5027.555528587763,-25196.138047711618,-32683.65951581711,-37148.04049110896,-36274.26609686209,-24138.364093108667,-33073.96567749568
14257.77545664018,5054.355270189675,-25156.55310828127,-32623.198047065503,-37276.20539381569,-36226.43336372774,-24196.389221714642,-33087.04144800203
14279.9707388843,5057.037479524312,-25141.286866818296,-32626.863733156173,-37112.076534280364,-36220.57720668044,-24067.3302492297,-33019.27095881355
14421.144356864019,5034.864549024648,-25177.474341091438,-32683.547757094835,-36960.64346559566,-36263.71607347918,-23991.535483781754,-32997.47800796962
14422.887792931533,5033.143464701589,-25195.75806805588,-32683.65951581711,-37109.215510990085,-36273.729654995164,-24111.363185806655,-33059.995837211114
14282.675299963392,5049.616700365151,-25167.997201442387,-32628.540113990322,-37283.04502761901,-36236.402241754804,-24208.50386720942,-33093.434046916256
14263.899834620934,5055.137581245611,-25141.51038426285,-32609.317613758758,-37157.271761569,-36216.95622407868,-24100.232017067912,-33032.23497059762
14401.541876976715,5035.579804847218,-25171.662887533057,-32667.78977725384,-36967.63956161017,-36255.133003608345,-23989.926158180973,-32991.10776079986
14433.482519803349,5027.868453010136,-25201.591873358713,-32690.700315320533,-37069.67527504865,-36279.63051553137,-24088.117371573135,-33046.47303181565
14303.998864173755,5055.025822523335,-25172.244032888895,-32629.45653551299,-37271.690341435715,-36243.17482032476,-24208.637977676153,-33092.517625393586
14257.082552562066,5065.218217994955,-25130.379215524106,-32595.504235685377,-37189.41357009573,-36212.75409612108,-24120.214476610956,-33039.14165963431
14383.258150012274,5046.956842774969,-25154.74261698039,-32648.254352599903,-36978.16723324862,-36245.4546982592,-23988.696812235932,-32985.07278979693
14447.877043232565,5032.741133301393,-25186.258576662374,-32682.854853016717,-37027.18460883911,-36278.13294865286,-24055.79674909076,-33027.80932519547
14332.922021498922,5054.422325423041,-25161.78341648381,-32637.726680961456,-37240.19673349819,-36247.68987270473,-24185.570977398274,-33083.17459621127
14251.516968192695,5071.297892486798,-25124.07602358771,-32602.723849144444,-37219.92370127722,-36208.75313386359,-24134.16196515107,-33049.53522080603
14362.716896857846,5061.306662715276,-25127.518192233827,-32638.12901236165,-36994.12637878971,-36227.528599206045,-23982.103047621615,-32982.92702232922
14452.90618573501,5041.57007236124,-25173.719248022946,-32686.22996642947,-36990.50539618795,-36273.90846895081,-24012.769641014296,-33013.48185699962
14355.60904212106,5046.800380563782,-25169.986506698908,-32657.865602715687,-37209.9324715057,-36257.34582630942,-24159.665305574574,-33085.230956701154
14246.86780534599,5069.800325608293,-25133.664921959036,-32614.279701027837,-37244.66708238925,-36216.911520589776,-24148.668247302565,-33068.98123848215
14335.894803511477,5068.638034896617,-25129.14986957906,-32635.87148617166,-37035.09712637629,-36229.40614574029,-24006.175876399982,-33002.66361268325
14451.855653745612,5036.831502536715,-25170.724114265933,-32686.05115247383,-36971.66287561213,-36277.2612306191,-23997.302233851224,-33018.0416128685
14397.295045530207,5055.42815392353,-25168.108960164664,-32657.552678293312,-37173.610886765826,-36262.37496881187,-24134.407834340076,-33085.521529379075
14259.027154329677,5064.190037750011,-25141.040997629287,-32614.391459750113,-37269.20929780117,-36229.74142190712,-24165.230889943945,-33095.669221361786
14310.21264913233,5057.9091975580695,-25129.820421912722,-32627.22136106746,-37076.42550187415,-36226.23219802764,-24029.66755982251,-33028.36811880686
14450.402790356016,5041.704182827972,-25160.956401938965,-32681.75961753841,-36947.45593636703,-36263.06787288998,-23973.02823937276,-33012.49838024359
14420.183231852441,5050.778991076826,-25179.150721925584,-32672.215422655994,-37121.77719137397,-36268.11936713688,-24102.86952291364,-33082.41463689979
14277.087363849565,5071.074375042245,-25151.881593690112,-32624.852076155195,-37262.50377446458,-36227.97563409515,-24166.527291122355,-33105.0122505441
14285.0222331312,5068.570979663251,-25134.424881270515,-32632.116393103173,-37104.14166499873,-36213.51405543257,-24039.882307038584,-33037.33116833343
14419.736196963335,5042.620604350639,-25170.7911694993,-32691.57203335429,-36940.459840352516,-36255.73650070864,-23952.330524007146,-33006.68692668521
14422.530165020247,5035.75861880286,-25195.869826778155,-32699.350440424736,-37079.73356005354,-36265.75008222462,-24065.698571884463,-33069.56238383798
14280.104849351032,5058.959729547469,-25171.50642532187,-32641.861753685687,-37258.815736629454,-36226.299253261,-24170.952936524503,-33108.387363956856
14263.117523564999,5071.633168653628,-25134.73780569289,-32621.856942398186,-37140.44089799415,-36199.700677359186,-24070.504196942355,-33052.5527063075
14402.704167688391,5052.47772365543,-25155.435521058505,-32676.55166108032,-36944.01376772091,-36232.87066613086,-23954.610401941587,-33003.22240629463
14437.505833805304,5038.4855316264075,-25195.020460488853,-32704.290175949358,-37041.199152612586,-36267.62762875886,-24048.19715597596,-33058.58767731043
14301.54017228367,5051.293081199298,-25178.92720448103,-32658.89378296063,-37253.36191098236,-36231.440154485725,-24178.999564528414,-33114.31057623751
14243.649154144427,5058.065659769257,-25136.83886967169,-32637.860791428186,-37181.568107791914,-36198.96306979216,-24103.47302001393,-33065.76258728059
14373.155161518474,5046.375697419131,-25157.380122826115,-32683.57010883929,-36963.035102252376,-36232.37892775285,-23969.608422471098,-33008.92210113074
14450.961583967399,5033.344630401687,-25187.08559120722,-32714.41551618761,-37000.07194281482,-36259.469242032676,-24024.95134174244,-33047.88119171634
14331.849137765068,5041.681831083516,-25176.6920300355,-32676.79753026933,-37220.92952977771,-36234.7035091762,-24166.97432601146,-33111.60601515842
14243.783264611158,5064.771183105849,-25140.97394239592,-32637.346701305712,-37212.055887228955,-36204.953337306186,-24129.646912771095,-33085.16390146779
14349.641126351491,5053.483552155919,-25147.92533492152,-32672.170719167083,-36990.21482351003,-36222.208884025684,-23984.360573811602,-33018.06396461296
14454.448456102427,5037.032668236812,-25185.431562117526,-32710.369850441202,-36967.371340676706,-36254.283637319044,-24003.00192868733,-33034.6489589988
14358.850045067078,5036.652688581073,-25183.8445882612,-32687.124036207682,-37189.324163117904,-36245.54410523702,-24155.954915994993,-33106.64392788934
14241.078703532065,5056.746906846393,-25148.55118376627,-32639.134840862138,-37240.21908524264,-36207.92611931874,-24157.273668917856,-33096.496235906634
14311.017311932721,5043.6487845955835,-25150.004047155864,-32671.27664938887,-37033.778373453424,-36225.31577650497,-24013.28373113677,-33031.564418263966
14436.030618671253,5024.739208786394,-25186.593852829203,-32718.95292031204,-36955.30139867084,-36263.22433510117,-23989.724992480875,-33030.93856941922
14378.161952276463,5029.23190942191,-25195.914530267066,-32704.625452116186,-37155.30480805693,-36260.02803564406,-24130.786851738318,-33098.32907895197
14252.880424604467,5058.33388070272,-25158.855337960165,-32648.83549795574,-37257.60874242887,-36219.23610201313,-24174.193939470522,-33106.04043078905
14298.9250181824,5059.004433036379,-25145.153718609065,-32648.679035744553,-37067.127176180744,-36216.464485700664,-24034.42848139149,-33035.677139243744
14433.661333758992,5031.221214678432,-25189.16430344156,-32714.773144098897,-36949.691110812564,-36267.40411131431,-23985.254643589815,-33026.35646180588
14409.789670680722,5033.456389123963,-25203.55882687078,-32707.262957961913,-37124.05706930841,-36272.32149509448,-24118.91807543255,-33095.95979403971
14260.43531423036,5045.459275896464,-25175.730905023924,-32660.637219028144,-37277.68060894973,-36236.804573154994,-24199.227893260468,-33124.99471008715
14271.72294518029,5055.80813357927,-25147.902983177064,-32650.51187878989,-37119.47496169507,-36216.93387233423,-24067.687877140987,-33052.21743014067
14407.889772402023,5026.8626245096475,-25186.526797595838,-32709.811056829818,-36954.6755498261,-36265.81713745798,-23982.23715808835,-33022.06492687046
14417.210449839886,5024.1357116861,-25211.448992663503,-32715.264882476913,-37086.7520078125,-36281.8656899769,-24094.44291525399,-33083.129892722354
14277.512046994216,5043.805246806771,-25178.591928314203,-32663.83351848525,-37271.44447224671,-36241.54314297952,-24197.484457192953,-33123.98888158666
14253.0145350712,5054.578787634228,-25140.70572146246,-32642.68876823053,-37159.8198604369,-36213.08937228792,-24094.10763908716,-33063.3038953905
14393.338786761617,5038.507883370863,-25165.024419429832,-32690.901481020628,-36958.54240161686,-36240.69377669022,-23970.524843993768,-33004.11647607285
14436.500005304815,5019.330086628209,-25203.22355070395,-32722.708013380532,-37045.75890848147,-36274.66842826229,-24060.13298751509,-33058.85589824389
14308.491564809272,5040.720706071938,-25175.485035834914,-32666.09104467524,-37255.75354763908,-36242.616026713375,-24187.515579165887,-33115.94225358275
14252.120465292986,5059.339709203209,-25137.531773749804,-32632.16109659208,-37197.90723298874,-36208.97665130814,-24114.939464919506,-33069.54003209353
14376.753792375779,5048.454409653475,-25148.662942488547,-32674.09296919024,-36977.027294281404,-36232.87066613086,-23972.380038783558,-33004.27293828403
14446.558290309704,5025.7450372868825,-25195.467495377958,-32723.91500758112,-37012.45480924306,-36276.14364339634,-24026.56066734322,-33043.567305036464
14330.776254031212,5035.848025780681,-25190.08072496423,-32689.47096937549,-37233.446506672684,-36261.03386414455,-24175.06565750428,-33115.517570438096
14233.277944717163,5049.013203264857,-25158.005971670864,-32656.83742247074,-37236.77691659652,-36227.05921257248,-24146.745997279406,-33091.243575959634
14335.336009900095,5041.458313638963,-25160.21879437194,-32686.341725151746,-37013.70650693256,-36234.167067309274,-23994.79883847223,-33018.622758224345
14437.28231636075,5017.452540093964,-25200.74250706941,-32732.878057107697,-36985.58801240778,-36276.30010560752,-24010.959149713417,-33037.93466543373
14352.479797897317,5032.249394923377,-25201.346004169704,-32701.80913231482,-37204.41159062524,-36260.877401933365,-24165.34264866622,-33111.02486980258
14233.032075528155,5048.923796287036,-25168.332477609216,-32655.42926257006,-37266.88471637783,-36218.74436363511,-24177.569052883275,-33103.3135179655
14311.799622988658,5048.588520120206,-25158.49771004888,-32675.858757002206,-37057.73944350951,-36229.2496835291,-24030.09224296716,-33034.559552020975
14436.745874493823,5022.9287174855135,-25196.495675622904,-32731.402841973646,-36972.1769657346,-36275.92012595179,-24006.578207800176,-33035.028938654534
14381.246493011296,5026.147368687078,-25209.660853107078,-32717.790629600364,-37171.93450593168,-36277.864727719396,-24151.037532214825,-33107.26977673409
14253.238052515753,5053.707069600471,-25167.192538641997,-32657.105643404204,-37279.66991420626,-36229.8531806294,-24193.572901913274,-33112.45538144772
14287.033890132177,5050.242549209899,-25158.54241353779,-32665.621658041677,-37101.034772519444,-36232.53538996403,-24060.244746237368,-33044.908409703785
14420.071473130165,5014.926792970514,-25197.009765745373,-32730.41936521761,-36969.181831977585,-36273.77435848407,-24003.270149620792,-33026.647034483794
14407.465089257372,5025.677982053517,-25208.766783328865,-32719.95874881253,-37129.421487977685,-36273.77435848407,-24130.853906971683,-33092.249404460126
14268.884273634467,5051.941281788502,-25169.89709972109,-32657.396216082125,-37274.551364725994,-36226.27690151655,-24192.29885247932,-33108.946157568236
14258.9153956074,5043.6487845955835,-25156.26253560335,-32660.391349839134,-37130.15909554471,-36220.91248284727,-24067.374952718612,-33046.8977149603
14400.066661842664,5020.693543039983,-25188.091419707707,-32722.640958147167,-36961.60459060724,-36263.58196301245,-23981.83482668815,-33016.25347331208
14421.323170819662,5024.426284364019,-25211.873675808154,-32735.96259784253,-37085.790882800924,-36281.59746904343,-24092.364203019646,-33076.49142461913
14279.367241784006,5041.972403761435,-25180.55888182627,-32672.796568011832,-37272.91968738076,-36241.96782612417,-24194.846951347226,-33112.74595412564
14239.447026186828,5044.229929951422,-25153.915602435543,-32653.059977657795,-37174.48260479958,-36218.00675606808,-24102.757764191363,-33055.74900576461
14368.483646927316,5022.124054685122,-25181.69882079349,-32706.547702139345,-36976.84848032576,-36258.75398621011,-23986.908672679507,-33010.03968835351
14417.99276089582,5009.160042901045,-25216.925170055052,-32733.056871063338,-37050.83275447282,-36288.772379013586,-24065.139778273082,-33060.353465122396
14301.517820539215,5037.278537425821,-25185.297451650793,-32677.98217272546,-37258.838088373916,-36251.422614028765,-24193.014108301893,-33113.192989014744
14237.34596220803,5050.801342821282,-25141.040997629287,-32641.682939730043,-37208.032573227,-36214.11755253286,-24131.21153488297,-33066.27667740305
14353.485626397805,5031.5564908452625,-25162.632782773115,-32689.89565252014,-36993.34406773378,-36241.76666042407,-23993.211864615903,-33005.97167086264
14425.771167966268,5008.6683045230275,-25214.42177467606,-32734.643844919665,-37017.95333837907,-36285.8666522344,-24039.457623893933,-33043.05321491399
14325.59064931758,5036.116246714145,-25193.679355821536,-32686.94522225204,-37230.83135257141,-36256.183535597746,-24180.184206984548,-33101.83830283145
14232.227412727763,5054.981119034424,-25154.07206464673,-32639.827744940252,-37241.5378381655,-36217.8502938569,-24155.329067150244,-33074.79269204053
14321.857907993544,5034.976307746924,-25162.923355451032,-32682.340762894248,-37021.976652381025,-36242.03488135754,-24009.461582834912,-33011.38079302082
14428.609839512092,5010.99288594638,-25209.392632173614,-32739.628283933198,-36985.476253685505,-36286.09016967895,-24018.37992887258,-33033.17374386475
14356.704277599369,5028.829578021715,-25201.815390803265,-32705.94420503905,-37197.68371554419,-36268.074663647974,-24166.01320099988,-33103.917015065796
14237.681238374858,5048.789685820304,-25157.849509459676,-32654.311675347293,-37262.727291909134,-36225.80751488299,-24176.674983105062,-33092.78584632705
14297.82978270409,5037.882034526114,-25160.21879437194,-32677.66924830309,-37064.31085637937,-36241.20786681269,-24036.70835932593,-33028.52458101804
14430.129758135052,5017.988981960891,-25196.138047711618,-32728.899446594653,-36967.14782323215,-36285.30785862301,-24004.41008858801,-33028.412822295766
14384.71101340187,5028.337839643698,-25198.64144309061,-32710.23573997447,-37151.88499115527,-36275.629553273866,-24140.152232665092,-33093.478750405164
14248.186558268853,5049.884921298614,-25166.41022758606,-32652.478832301957,-37273.45612924769,-36233.183590553235,-24193.863474591195,-33106.95685231171
14275.746259182246,5048.677927098028,-25154.183823369007,-32661.307771361804,-37097.905528295705,-36227.997985839604,-24061.161167760038,-33036.81707821096
14415.779938194746,5024.068656452734,-25186.996184229396,-32717.65651913363,-36949.333482901275,-36270.734521238155,-23983.46650403339,-33009.72676393113
14400.066661842664,5017.318429627232,-25216.724004354957,-32720.919873824107,-37113.46234243659,-36286.5148528236,-24112.860752685163,-33081.609974099396
14264.302166021129,5044.967537518446,-25179.843626003698,-32661.531288806356,-37280.60868747338,-36240.69377669022,-24202.3124339953,-33111.96364306971
14260.211796785808,5052.4553719109745,-25142.762081952344,-32652.858811957696,-37135.992900847545,-36220.823075869455,-24083.669374426532,-33044.64018877032
14390.120135560053,5017.251374393866,-25188.426695874536,-32720.85281859074,-36964.93500053108,-36269.818099715485,-23991.155504126014,-33016.454639012176
14416.338731806129,5013.742150514383,-25213.952388042497,-32734.91206585313,-37079.800615286906,-36290.20289065873,-24093.504141986865,-33073.74216005113
14280.082497606576,5036.47387462543,-25186.70561155148,-32675.299963390826,-37272.56205946947,-36251.53437275105,-24206.358099741712,-33115.33875648246
14234.395531939928,5043.268804939843,-25161.425788572527,-32659.27376261637,-37183.55741304844,-36233.22829404215,-24120.683863244518,-33067.349561136914
14360.928757301423,5021.498205840374,-25187.197349929495,-32707.37471668419,-36982.21289899503,-36267.94055318124,-23997.88337920706,-33017.706336701674
14416.42813878395,5005.516708554829,-25223.965969558474,-32738.510696710433,-37050.5421817949,-36299.680030307776,-24074.013420821837,-33063.03567445704
14300.936675183377,5029.656592566561,-25196.42862038954,-32681.7149140495,-37258.88279186282,-36260.47507053317,-24200.25607350541,-33113.2153407592
14228.38291268145,5046.867435797148,-25159.637649016102,-32644.298093831316,-37221.622433855824,-36225.02520382705,-24146.276610645844,-33073.65275307331
14338.353495401561,5027.600232076673,-25174.143931167597,-32690.454446131524,-37004.96697485053,-36252.98723614064,-24009.416879346,-33010.55377847597
14421.591391753125,5004.220307376422,-25218.825068333754,-32735.18028678659,-37017.37219302323,-36300.819969275,-24048.71124609843,-33044.30491260349
14323.422530105416,5026.70616229846,-25205.056393749284,-32686.22996642947,-37233.60296888387,-36272.88028870586,-24187.917910566084,-33107.49329417864
14227.935877792344,5049.884921298614,-25160.55407053877,-32636.765555949874,-37247.75162312408,-36215.61511941136,-24161.811073042285,-33075.55265135201
14313.140727655975,5036.4291711365195,-25167.103131664175,-32669.242640643435,-37033.39839379769,-36233.56357020898,-24016.815306760705,-33006.70927842966
14422.105481875597,5009.361208601143,-25206.03987050532,-32723.66913839211,-36978.54721290436,-36278.691742264244,-24009.93096946847,-33019.6956419582
14354.60321362057,5021.922888985025,-25206.84453330571,-32698.054039246326,-37191.04524744097,-36271.33801833844,-24165.074427732758,-33095.55746263951
14232.272116216674,5043.492322384396,-25163.348038595683,-32644.07457638676,-37261.38618724182,-36226.16514279427,-24182.955823297005,-33086.996744513126
14288.240884332763,5036.317412414242,-25160.21879437194,-32662.067730673283,-37062.67917903414,-36235.88815163233,-24039.81525180522,-33019.11449660236
14419.04329288522,5011.439920835486,-25200.51898962486,-32720.76341161292,-36962.00692200744,-36280.94926845423,-24002.577245542678,-33013.54891223299
14377.893731343,5013.138653414089,-25211.8513240637,-32705.43011491658,-37152.10850859982,-36278.915259708796,-24141.336875121222,-33085.11919797888
14237.34596220803,5030.014220477846,-25183.79988477229,-32654.021102669372,-37284.92257415326,-36238.74917492261,-24205.2628642634,-33103.559387154506
14263.408096242918,5033.970479246435,-25155.480224547413,-32655.585724781246,-37110.24369123503,-36228.13209630634,-24070.52654868681,-33033.10668863138
14396.780955407734,5007.774234744816,-25198.730850068434,-32717.76827785591,-36963.660951097125,-36279.71992250919,-23999.358594341113,-33012.744249432595
14388.622568681547,5009.964705701435,-25221.529629412846,-32722.529199424887,-37118.78205761696,-36292.23689940416,-24126.67413075854,-33080.1571107098
14258.356601996018,5038.910214771058,-25186.415038873558,-32661.97832369546,-37284.11791135286,-36244.717090692175,-24213.398899245134,-33108.67793663478
14250.399380969928,5042.911177028558,-25155.12259663613,-32647.472041543966,-37149.985092876566,-36223.70645090419,-24098.667394956043,-33044.79665098151
14391.260074527274,5030.885938511603,-25178.27900389183,-32702.636146859666,-36959.77174756191,-36262.59848625642,-23989.27795759177,-33003.6917929282
14424.161842365485,5025.856796009159,-25206.486905394424,-32708.4699521625,-37064.35555986829,-36282.29037312155,-24085.077534327214,-33057.6042005544
14289.224361088796,5045.258110196365,-25176.379105613127,-32655.42926257006,-37263.174326798246,-36246.192305826225,-24200.54664618333,-33102.64296563184
14242.106883777009,5054.310566700765,-25143.723206963925,-32630.3506052912,-37180.65168626925,-36219.772543880055,-24113.665415485553,-33047.92589520525
14365.376754448029,5030.505958855862,-25165.493806063394,-32683.79362628384,-36968.86890755522,-36249.09803260542,-23983.913538922494,-32991.89007185579
14423.804214454201,5012.691618524983,-25207.425678661548,-32723.6244349032,-37028.92804490662,-36285.263155134104,-24059.194214247967,-33040.549819535
14303.775346729202,5031.0871042117005,-25198.261463434872,-32679.52444309288,-37257.69814940669,-36265.81713745798,-24205.575788685775,-33108.83439884596
14233.836738328546,5055.04817426779,-25151.12163437863,-32630.462364013478,-37222.047117000475,-36221.33716599192,-24144.555526322787,-33065.27084890257
14344.679039082414,5040.765409560849,-25160.799939727778,-32671.746036022432,-36999.44609397007,-36247.98044538265,-24000.833809475163,-32999.80258939297
14441.931479207455,5024.962726230947,-25200.004899502386,-32715.398992943647,-36997.52384394692,-36286.58190805696,-24029.064062722216,-33025.261226327566
14346.087198983098,5041.011278749857,-25193.03115523233,-32681.983134982962,-37216.34742216438,-36261.10091937792,-24173.433980159043,-33089.433084658755
14235.557822651605,5057.931549302524,-25156.4860530479,-32630.93175064704,-37250.9926260701,-36221.89595960331,-24164.96266901048,-33070.23293617165
14318.21457364733,5047.158008475067,-25150.831061700712,-32657.865602715687,-37031.56555075235,-36228.82500038445,-24016.971768971893,-32998.72970565912
14434.801272726212,5025.409761120053,-25191.064201720263,-32710.5710161413,-36967.93013428809,-36270.935686938254,-24006.198228144436,-33002.95418536117
14364.885016070011,5034.752790302371,-25197.121524467653,-32686.60994608521,-37176.2260408671,-36265.4595095467,-24148.69059904702,-33076.20085194121
14237.0106860412,5054.735249845416,-25158.095378648686,-32635.22328558246,-37261.9449808532,-36219.414915968766,-24178.865454061684,-33075.86557577438
14289.649044233447,5053.640014367105,-25151.50161403437,-32655.719835247975,-37065.92018198016,-36223.66174741527,-24040.731673327886,-33006.50811272956
14430.554441279703,5040.050153738279,-25182.83875976071,-32709.207559729526,-36950.96516024652,-36266.308875836,-23989.79204771424,-32994.840502123894
14390.388356493517,5039.960746760457,-25202.195370459005,-32697.830521801774,-37130.87435136728,-36273.05910266151,-24119.365110321654,-33065.673180302765
14248.097151291031,5056.635148124117,-25171.238204388406,-32646.108585132195,-37274.1490333258,-36236.37989001034,-24187.40382044361,-33088.06962824698
14265.509160221716,5051.360136432664,-25154.094416391184,-32646.443861299023,-37105.661583621695,-36225.74045964962,-24056.19908049096,-33020.232083825125
14402.793574666211,5019.777121517315,-25190.058373219774,-32709.028745773885,-36951.568657346805,-36269.84045145994,-23980.136094109548,-32996.025144580024
14411.37664453705,5031.04240072279,-25195.646309333602,-32698.61283285771,-37087.08728397933,-36272.32149509448,-24088.139723317592,-33049.75873825058
14261.77641889768,5041.8829967836145,-25178.636631803114,-32650.355416578703,-37269.27635303454,-36239.97852086765,-24192.12003852368,-33089.83541605895
14242.553918666115,5045.012241007357,-25152.97682916842,-32641.615884496678,-37149.068671353896,-36217.13503803433,-24091.00074660787,-33032.48083978663
14381.827638367135,5022.191109918489,-25181.5423585823,-32700.199806714038,-36960.33054117329,-36258.59752399892,-23980.65018423202,-32988.80553112096
14421.27846733075,5018.905403483558,-25209.683204851535,-32713.208521987024,-37060.57811505534,-36277.440044574745,-24075.57804293371,-33041.57799977994
14285.424564531395,5039.7148775714495,-25185.65507956208,-32663.922925463074,-37262.70494016468,-36241.297273790515,-24199.205541516014,-33089.47778814766
14231.422749927373,5048.432057909019,-25152.619201257134,-32634.03864312633,-37191.35817186334,-36216.464485700664,-24121.644988256096,-33044.57313353696
14363.02982128022,5034.8421972801925,-25161.82811997272,-32678.51861459239,-36972.042855267864,-36241.81136391299,-23981.767771454786,-32985.564528174946
14430.822662213168,5025.722685542427,-25197.59091110121,-32711.241568474958,-37013.08065808781,-36274.84724221793,-24042.4751093954,-33023.45073502669
14309.229172376297,5037.479703125919,-25184.40338187258,-32673.04243720084,-37238.766221853046,-36254.95418965271,-24189.661346633595,-33089.433084658755
14226.237145213741,5052.120095744145,-25149.042922144286,-32631.64700646961,-37225.84691355788,-36219.86195085788,-24151.30575314829,-33057.02305519856
14326.238849906786,5033.299926912776,-25163.035114173308,-32672.863623245197,-37006.15161730666,-36248.136907593835,-24004.253626376823,-32994.14759804578
14426.732292977846,5015.083255181701,-25197.70266982349,-32717.47770517799,-36989.36545722073,-36283.117387666396,-24020.190420173458,-33015.71703144515
14339.828710535612,5032.942299001491,-25185.677431306536,-32670.51669007739,-37198.95776497814,-36255.781204197556,-24158.234793929434,-33075.57500309646
14224.180784723852,5046.174531719033,-25149.780529711312,-32628.920093646062,-37244.488268433604,-36218.02910781254,-24157.34072415122,-33063.46035760169
14301.495468794761,5037.23383393691,-25152.21686985694,-32654.80341372531,-37034.51598102045,-36230.97076785216,-24012.23319914737,-32993.74526664559
14420.719673719368,5015.574993559718,-25191.667698820558,-32708.693469607053,-36967.75132033245,-36276.03188467406,-24000.207960630414,-33002.127170816326
14359.341783445096,5023.465159352441,-25197.45680063448,-32684.531233850867,-37173.99086642157,-36272.29914335003,-24145.963686223473,-33075.19502344073
14235.848395329524,5050.197845720988,-25154.429692558017,-32631.959930891986,-37269.61162920137,-36225.96397709417,-24177.97138428347,-33076.44672113022
14279.277834806186,5040.184264205011,-25146.20425059846,-32645.75095722091,-37077.43133037464,-36225.06990731596,-24040.061120994225,-33004.40704875076
14406.593371223615,5007.75188300036,-25192.137085454116,-32709.90046380764,-36960.799927806846,-36276.79184398554,-23990.909634937005,-32997.5897666919
14379.056022054676,5017.452540093964,-25206.397498416605,-32703.57492012679,-37139.904456127224,-36278.73644575315,-24129.468098815454,-33072.31164840599
14245.683162889858,5048.8120375647595,-25160.64347751659,-32635.156230349094,-37275.31132403747,-36222.38769798132,-24190.130733267157,-33082.9063752778
14254.243881016242,5046.28629044131,-25142.471509274426,-32631.468192513967,-37115.47399943757,-36215.03397405553,-24062.971659060917,-33015.80643842297
14390.343653004606,5016.267897637832,-25183.062277205263,-32696.57882411228,-36956.79896554935,-36265.6606752468,-23984.181759855957,-32992.62767942282
14402.65946419948,5021.721723284927,-25203.201198959494,-32699.015164257908,-37094.01632476048,-36277.35063759692,-24102.646005469087,-33056.79953775401
14266.53734046666,5045.660441596561,-25173.40632360057,-32642.398195552614,-37274.19373681471,-36234.94937836521,-24202.714765395496,-33094.462227161195
14241.39162795444,5053.036517266813,-25148.819404699734,-32625.299111044304,-37164.04434013896,-36217.33620373443,-24100.25436881237,-33036.43709855522
14378.877208099033,5033.210519934955,-25167.661925275555,-32676.059922702305,-36967.03606450988,-36254.75302395261,-23980.136094109548,-32988.87258635433
14423.33482782064,5026.996734976379,-25197.948539012497,-32694.70127757803,-37051.23508587302,-36276.14364339634,-24060.110635770638,-33035.118345632356
14298.25446584874,5054.467028911952,-25174.099227678686,-32637.279646072348,-37262.61553318686,-36238.81623015597,-24190.89069257864,-33089.34367768093
14243.403284955417,5071.521409931352,-25130.35686377965,-32607.50712245788,-37194.68858178718,-36204.99804079509,-24118.359281821165,-33041.84622071341
14364.594443392092,5052.254206210877,-25148.26061108835,-32652.74705323542,-36978.59191639327,-36229.67436667375,-23978.973803397872,-32979.50720542755
14433.907202948,5032.85289202367,-25192.002974987387,-32692.331992665768,-37015.51699823344,-36266.688855491746,-24034.719054069406,-33017.32635704593
14319.443919592371,5047.649746853083,-25179.418942859047,-32656.36803583718,-37234.11705900634,-36247.19813432672,-24182.374677941167,-33084.06866598948
14234.194366239832,5068.235703496422,-25142.002122640864,-32612.26804402686,-37226.249244958075,-36209.8483693419,-24141.515689076867,-33050.76456675107
14333.793739532679,5051.5165986438515,-25149.06527388874,-32645.97447466546,-37000.787198637394,-36230.63549168533,-23988.763867469297,-32981.34004847289
14435.069493659676,5029.656592566561,-25187.264405162863,-32692.17553045458,-36975.79794833636,-36272.209736372206,-24003.00192868733,-33001.1883975492
14342.130940214509,5036.406819392064,-25190.505408108882,-32663.85587022971,-37194.88974748728,-36254.77537569706,-24155.01614272787,-33071.68579956124
14225.946572535822,5055.942244046002,-25155.591983269693,-32614.033831838828,-37255.75354763908,-36219.57137817996,-24170.036515001837,-33065.06968320247
14302.25542810624,5046.129828230122,-25152.328628579216,-32642.12997461915,-37048.15054513819,-36225.27107301606,-24024.079623708683,-32995.57810969092
14417.813946940178,5016.759636015849,-25194.394611644104,-32706.838274817263,-36966.63373310968,-36269.058140404006,-23994.17298962748,-32995.44399922419
14361.532254401714,5026.192072175989,-25198.149704712596,-32680.150291937625,-37162.21149709362,-36264.856012446406,-24132.35147385019,-33065.53906983603
14236.921279063377,5057.1939417355,-25154.07206464673,-32617.252483040393,-37261.31913200845,-36214.944567077706,-24170.707067335497,-33069.227107671155
14273.77930567018,5055.182284734522,-25149.48995703339,-32635.580913493744,-37082.97456299956,-36218.96788107966,-24038.787071560273,-33001.50132197158
14415.556420750192,5044.8781305406255,-25182.637594060612,-32682.69839080553,-36952.79800329185,-36258.284599576546,-23978.213844086393,-32982.32352522892
14397.339749019116,5044.431095651519,-25185.811541773266,-32675.679943046565,-37118.73735412805,-36262.21850660068,-24106.557560748766,-33046.54008704902
14254.48975020525,5062.848933082692,-25155.413169314048,-32618.59358770771,-37270.70686467968,-36219.057288057484,-24184.363983197687,-33069.49532860462
14265.352698010529,5073.555418676784,-25132.189706824985,-32612.87154112715,-37117.64211864974,-36202.11466576036,-24060.3788567041,-33002.93183361671
14404.157031077986,5054.221159722943,-25165.31499210775,-32669.42145459908,-36950.02638697939,-36243.37598602486,-23972.78237018375,-32972.22053673513
14412.650693971002,5044.498150884885,-25195.109867466675,-32682.094893705238,-37080.29235366492,-36263.179631612256,-24088.497351228878,-33032.3467293199
14267.364355011507,5055.271691712343,-25175.775608512835,-32637.614922239176,-37278.73114093913,-36232.915369619775,-24203.631186918163,-33080.87236653237
14234.95432555131,5059.04913652529,-25144.30435231976,-32618.325366774247,-37172.917982687715,-36207.72495361864,-24099.896740901084,-33022.668423970754
14370.204731250375,5038.060848481757,-25164.398570585083,-32672.90832673411,-36966.969009276516,-36242.81719241347,-23971.17304458297,-32965.76088258754
14415.71288296138,5019.9335837285025,-25200.384879158126,-32704.826617816285,-37047.54704803789,-36276.2106986297,-24056.62376363561,-33020.366194291855
14292.107736123531,5041.726534572427,-25177.49669283589,-32650.13189913415,-37252.78076562652,-36238.145677822315,-24182.955823297005,-33070.38939838283
14229.902831304411,5066.648729640095,-25146.07014013173,-32609.60818643668,-37203.91985224722,-36210.40716295328,-24118.71690973245,-33027.76462170656
14348.724704828825,5046.353345674675,-25161.44814031698,-32653.886992202642,-36990.05836129885,-36242.92895113575,-23987.13219012406,-32976.80264434846
14434.823624470668,5030.6177175781395,-25193.902873266088,-32689.113341464206,-37012.27599528742,-36277.03771317455,-24031.075719723194,-33010.374964520335
14323.422530105416,5042.397086906086,-25191.667698820558,-32655.518669547877,-37240.152030009274,-36256.85408793141,-24182.285270963344,-33077.98899149764
14226.952401036311,5056.0316510238235,-25152.619201257134,-32614.7490876614,-37245.42704170073,-36220.51015144708,-24156.78193053984,-33056.68777903173
14327.222326662819,5046.9344910305135,-25148.372369810626,-32645.192163609525,-37022.55779773686,-36234.88232313184,-24007.27111187829,-32990.39250497729
14429.52626103476,5021.095874440179,-25190.125428453142,-32697.38348691267,-36992.29353574438,-36278.557631797514,-24018.17876317248,-33006.50811272956
14350.468140896339,5037.6585170815615,-25188.27023366335,-32666.873355731175,-37209.97717499461,-36263.805480457006,-24168.337782423234,-33076.75964555259
14246.0631425456,5072.86251459867,-25136.36948303813,-32607.864750369165,-37264.47072797665,-36215.81628511146,-24168.82952080125,-33064.08620644644
14312.894858466967,5063.586540649717,-25124.523058476814,-32628.093079101218,-37055.750138252995,-36223.92996834874,-24014.602484059633,-32992.80649337846
14435.225955870863,5036.7197438144385,-25169.65123053208,-32686.989925740952,-36961.001093506944,-36269.77339622658,-23973.050591117215,-32988.60436542086
14383.079336056631,5041.838293294703,-25183.21873941645,-32676.41755061359,-37157.182354591176,-36264.34192232393,-24114.693595730496,-33057.22422089866
14251.29345074814,5067.8333720962255,-25143.633799986103,-32612.916244616063,-37264.85070763239,-36215.726878133646,-24158.882994518637,-33063.79563376852
14290.364300056017,5070.783802364326,-25122.73491892039,-32618.370070263158,-37082.929859510645,-36211.70356413169,-24018.871667250594,-32995.399295735275
14420.317342319173,5038.396124648586,-25167.930146209022,-32683.19012918355,-36951.278084668884,-36259.335131565946,-23957.18085255395,-32982.882318840304
14399.507868231281,5027.957859987958,-25194.014631988364,-32690.94618450954,-37113.261176736494,-36273.863765461894,-24085.166941305037,-33056.17368890926
14262.849302631534,5055.249339967888,-25157.290715848296,-32638.37488155066,-37269.23164954563,-36232.82596264195,-24165.655573088596,-33089.65660210331
14268.481942234272,5071.253188997887,-25126.333549777693,-32621.968701120462,-37118.06680179439,-36208.32845071894,-24038.56355411572,-33020.05326986948
14404.04527235571,5043.604081106673,-25164.465625818448,-32692.17553045458,-36937.956444973526,-36257.79286119853,-23936.080805788137,-32985.65393515276
14421.077301630654,5035.646860080584,-25195.8474750337,-32706.23477771697,-37063.349731367794,-36279.541108553545,-24047.638362364574,-33053.290313874524
14290.230189589285,5067.0957645292,-25166.499634563883,-32648.634332255642,-37254.703015649684,-36234.14471556481,-24156.848985773206,-33094.08224750546
14255.115599049997,5077.601084423195,-25131.65326495806,-32624.963834877475,-37158.232886580576,-36199.07482851444,-24065.51975792882,-33037.57703752244
14382.98992907881,5055.942244046002,-25154.563803024746,-32674.38354186816,-36949.4228898791,-36236.491648732626,-23939.187698267426,-32984.55869967445
14439.38338033955,5045.280461940821,-25183.55401558328,-32703.843141060253,-37013.81826565484,-36262.21850660068,-24007.98636770086,-33030.223313596645
14308.44686132036,5055.450505667985,-25172.288736377806,-32662.537117306845,-37233.20063748368,-36232.71420391968,-24143.929677478038,-33087.93551778025
14244.587927411549,5073.667177399061,-25124.701872432455,-32619.420602252558,-37184.295020615464,-36192.21284296666,-24074.52751094431,-33041.130964890835
14357.084257255108,5049.594348620695,-25138.35878829465,-32667.454501087013,-36960.41994815111,-36219.21375026867,-23929.84466908511,-32978.92606007172
14440.679781517958,5032.361153645654,-25181.69882079349,-32714.013184787418,-36974.79211983587,-36259.80451819951,-23973.16234983949,-33014.73355468912
14332.810262776646,5039.513711871352,-25180.60358531518,-32677.333972136257,-37200.07535220091,-36243.28657904704,-24125.4447848135,-33087.66729684678
14232.026247027667,5055.875188812636,-25144.55022150877,-32631.93757914753,-37219.32020417693,-36198.78425583652,-24108.792735194296,-33067.1036919479
14325.769463273224,5047.135656730611,-25143.030302885807,-32665.7110650195,-36992.94173633358,-36213.55875892148,-23952.866965874073,-32993.29823175648
14428.05104590071,5020.492377339885,-25194.37225989965,-32725.27846399289,-36955.07788122629,-36262.84435544543,-23960.153634566504,-33015.71703144515
14357.866568311045,5035.825674036226,-25189.454876119482,-32698.478722390977,-37169.38640706377,-36250.93087565075,-24116.280569586823,-33091.44474165973
14241.548090165626,5068.280406985332,-25147.366541310137,-32636.02794838285,-37240.509657920564,-36207.032049540525,-24140.331046620733,-33085.78975031254
14307.59749503106,5068.101593029689,-25135.72128244892,-32651.18243112355,-37035.76767870995,-36206.830883840434,-23990.59671051463,-33010.084391842414
14436.052970415709,5042.240624694899,-25174.903890479076,-32710.14633299665,-36936.99531996195,-36253.6577884743,-23951.011771084282,-33004.78702840651
14397.719728674858,5050.130790487622,-25175.932070724022,-32685.04532397334,-37123.25240650802,-36248.69570120522,-24088.117371573135,-33070.8587850164
14257.909567106912,5065.106459272678,-25144.080834875207,-32636.162058849583,-37252.28902724851,-36209.17781700824,-24149.629372314143,-33090.349506181425
14289.894913422457,5066.961654062468,-25124.59011371018,-32637.726680961456,-37079.800615286906,-36205.78035185103,-24018.491687594855,-33022.93664490421
14426.911106933489,5040.251319438376,-25162.11869265064,-32693.65074558863,-36935.07306993879,-36249.41095702779,-23945.177965781448,-32998.52853995902
14422.32899932015,5046.107476485668,-25179.73186728142,-32689.18039669757,-37087.1543392127,-36253.70249196321,-24067.28554574079,-33060.33111337794
14286.408041287428,5071.700223886994,-25148.908811677553,-32630.88704715813,-37252.42313771524,-36214.76575312206,-24159.240622429923,-33092.31645969349
14278.87550340599,5079.679796657539,-25124.411299754538,-32620.06880284176,-37116.94921457162,-36195.9455842907,-24044.240897207368,-33031.20679035268
14412.13660384853,5052.7459445888935,-25151.54631752328,-32676.17168142458,-36930.31214836981,-36233.608273697886,-23935.454956943388,-32986.6374119088
14430.174461623963,5035.356287402665,-25191.913568009564,-32701.026821258885,-37049.55870503887,-36264.163108368295,-24046.34196118617,-33053.2009068967
14294.074689635598,5054.243511467399,-25165.069122918743,-32647.494393288423,-37244.778841111525,-36226.45571547219,-24162.88395677614,-33100.3630876974
14255.227357772275,5069.196828507999,-25127.026453855808,-32619.577064463745,-37154.231924323074,-36190.98349702162,-24070.280679497802,-33041.53329629103
14383.727536645834,5048.253243953377,-25151.233393100905,-32679.725608792975,-36947.14301194465,-36226.56747419447,-23945.960276837384,-32989.878414854815
14437.95286869441,5027.711990798949,-25196.383916900628,-32717.969443556005,-37018.22155931253,-36267.98525667015,-24027.767661543807,-33042.516773047064
14321.07559693761,5045.146351474089,-25172.624012544635,-32664.146442907626,-37233.46885841714,-36231.64132018582,-24157.608945084685,-33098.93257605226
14250.421732714383,5065.642901139606,-25121.036186341786,-32623.019233109862,-37189.21240439563,-36189.843558054396,-24087.156246561557,-33052.5527063075
14357.084257255108,5047.672098597539,-25139.16345109504,-32671.83544300025,-36972.22166922351,-36220.957186336185,-23946.340256493124,-32991.73360964461
14445.999496698321,5027.04143846529,-25179.195425414495,-32713.14146675366,-36976.49085241447,-36261.99498915613,-23984.44998078942,-33025.44004028321
14340.78983554719,5036.831502536715,-25177.921375980543,-32679.166815181594,-37202.26582315753,-36248.427480271755,-24141.001598954394,-33098.4631894187
14237.413017441395,5058.378584191631,-25139.8340034287,-32631.445840769513,-37226.62922461382,-36204.662764628265,-24126.830592969727,-33072.17753793926
14324.942448728378,5051.248377710388,-25139.69989296197,-32662.626524284668,-37001.32364050432,-36211.32358447595,-23968.98257362635,-32999.26614752605
14440.299801862217,5038.865511282148,-25180.156550426072,-32707.218254473002,-36941.77859327538,-36248.51688724958,-23955.012733341784,-33004.45175223968
14366.114362015052,5041.726534572427,-25191.13125695363,-32688.621603086187,-37157.22705808008,-36248.53923899403,-24109.68680497251,-33080.67120083227
14243.827968100068,5063.027747038334,-25153.133291379607,-32638.441936784024,-37242.677777132725,-36201.57822389343,-24139.571087309254,-33081.83349154395
14302.456593806339,5062.759526104871,-25135.74363419338,-32649.237829355938,-37036.41587929915,-36195.38679067932,-23992.5636640267,-33002.887130127805
14426.28525808874,5029.053095466268,-25182.07880044923,-32714.3708126987,-36933.93313097157,-36246.3040645485,-23953.89514611902,-32997.5897666919
14386.700318658392,5029.745999544382,-25201.413059403072,-32706.547702139345,-37123.38651697475,-36249.52271575007,-24098.510932744855,-33070.568212338476
14253.573328682582,5052.008337021868,-25157.469529803937,-32649.41664331158,-37253.026634815535,-36199.58891863691,-24157.139558451127,-33081.341753165936
14275.478038248782,5054.288214956309,-25139.990465639887,-32646.51091653239,-37086.28262117894,-36192.81634006695,-24025.17485918699,-33009.592653464395
14411.04136837022,5030.483607111408,-25180.000088214885,-32703.53021663788,-36940.43748860806,-36237.69864293321,-23952.59874494061,-32987.799702620476
14413.008321882287,5031.265918167343,-25198.753201812888,-32707.352364939736,-37086.32732466785,-36248.31572154948,-24073.81225512174,-33052.508002818584
14269.666584690403,5046.9344910305135,-25171.70759102197,-32653.99875092492,-37267.979951856134,-36215.68217464473,-24178.150198239113,-33095.35629693941
14267.163189311408,5062.804229593781,-25130.110994590643,-32633.79277393732,-37130.337909500355,-36191.43053191072,-24057.38372294709,-33027.40699379528
14403.307664788685,5035.289232169299,-25156.50840479236,-32690.096818220238,-36936.14595367265,-36234.34588126491,-23946.921401848962,-32983.32935372941
14435.04714191522,5030.99769723388,-25186.12446619564,-32709.252263218437,-37040.28273108992,-36261.927933922765,-24048.063045509225,-33041.84622071341
14304.088271151575,5060.837276081715,-25156.284887347807,-32651.540059034833,-37238.050966030474,-36222.25358751459,-24162.168700953567,-33087.60024161342
14255.182654283364,5071.186133764521,-25124.00896835434,-32623.086288343227,-37160.11043311482,-36190.64822085479,-24080.406019736056,-33036.928836933235
14374.339803974606,5040.586595605207,-25152.373332068128,-32682.877204761175,-36952.753299802935,-36228.62383468435,-23952.956372851895,-32985.7880456195
14442.736142007845,5031.265918167343,-25183.8445882612,-32708.782876584875,-36997.70265790256,-36256.675273975765,-24013.440193347957,-33025.10476411638
14330.999771475766,5056.0316510238235,-25166.209061885962,-32665.778120252864,-37215.341593663885,-36230.657843429784,-24149.137633936123,-33083.286354933545
14250.265270503196,5073.309549487776,-25129.887477146087,-32631.892875658617,-37195.560299820936,-36190.84938655489,-24101.61782522414,-33049.75873825058
14355.050248509677,5051.784819577315,-25144.59492499768,-32677.333972136257,-36982.21289899503,-36222.432401470236,-23967.17208232547,-32991.86772011134
14452.839130501645,5035.915081014047,-25180.067143448254,-32708.134675995672,-36973.115739001725,-36263.44785254572,-23991.69194599294,-33017.03578436802
14363.94624280289,5051.3377846882095,-25168.8912712206,-32669.510861576902,-37189.41357009573,-36238.860933644886,-24137.358264608178,-33082.302878177514
14261.754067153224,5075.254151255388,-25122.556104964748,-32614.234997538926,-37216.34742216438,-36188.68126734272,-24125.176563880035,-33053.580886552445
14328.563431330138,5049.99668002089,-25132.8826109031,-32655.69748350352,-37004.25171902797,-36206.65206988479,-23976.02337312977,-32983.77638861852
14446.625345543069,5029.880110011114,-25172.579309055724,-32705.56422538331,-36937.6211688067,-36252.473146018165,-23962.165291567482,-32993.56645268994
14382.744059889801,5035.04336298029,-25175.55209106828,-32681.93843149405,-37142.09492708385,-36244.426518014254,-24112.503124773877,-33064.01915121307
14251.651078659426,5052.6341858666165,-25143.11970986363,-32634.68684371553,-37236.48634391861,-36208.1943402522,-24150.38933162562,-33070.769378038574
14299.796736216156,5049.281424198321,-25136.41418652704,-32654.535192791845,-37048.15054513819,-36218.78906712402,-24013.641359048055,-33008.00567960807
14434.108368648098,5029.298964655276,-25168.712457264955,-32708.916987051605,-36930.468610580996,-36261.59265775593,-23963.282878790247,-32995.62281317983
14399.999606609299,5027.644935565583,-25190.5948150867,-32702.747905581942,-37116.30101398242,-36267.24764910313,-24104.210627580956,-33070.568212338476
14266.626747444481,5054.377621934131,-25154.25087860237,-32640.632407740643,-37260.33565525242,-36218.20792176818,-24175.87032030467,-33088.00257301361
14283.34585229705,5062.401898193586,-25133.240238814386,-32642.979340908452,-37101.258289964,-36211.994136809604,-24050.164109488025,-33023.92012166025
14419.870307430067,5036.6079850921615,-25170.992335199397,-32706.167722483606,-36942.60560782023,-36261.10091937792,-23970.435437015945,-33001.210749293656
14419.356217307595,5025.476816353419,-25196.339213411717,-32713.655556876132,-37087.04258049042,-36274.444910817736,-24085.323403516224,-33061.69456978972
14282.608244730025,5048.275595697832,-25162.521024050835,-32656.949181193017,-37266.84001288891,-36234.47999173165,-24184.296927964322,-33098.15026499632
14269.241901545753,5064.815886594759,-25120.54444796377,-32628.048375612307,-37134.875313624776,-36204.21572973916,-24060.468263681923,-33027.854028684385
14402.637112455024,5043.6487845955835,-25149.64641924458,-32681.200823927025,-36934.89425598315,-36236.02226209906,-23939.858250601086,-32976.66853388173
14439.405732084006,5030.684772811505,-25181.520006837847,-32703.172588726593,-37026.64816697218,-36256.116480364384,-24029.33228365568,-33027.76462170656
14305.854058963545,5050.6895840990055,-25159.056503660264,-32654.110509647195,-37233.40180318377,-36223.50528520409,-24157.184261940034,-33080.85001478792
14241.43633144335,5055.651671368083,-25133.329645792204,-32632.6528349701,-37170.36988381981,-36201.57822389343,-24084.608147693652,-33038.29229334501
14362.672193368935,5036.987964747902,-25156.64251525909,-32680.306754148813,-36958.85532603924,-36227.103916061395,-23954.386884497035,-32982.6364496513
14428.229859856352,5018.391313361087,-25203.22355070395,-32720.76341161292,-37006.91157661815,-36269.92985843776,-24020.503344595832,-33028.1446013623
14327.55760282965,5048.0520782532785,-25175.88736723511,-32666.98511445345,-37221.04128849999,-36233.07183183096,-24158.39125614062,-33083.62163110037
14242.106883777009,5066.648729640095,-25134.156660337052,-32623.510971487878,-37202.86932025782,-36189.418874909745,-24106.78107819332,-33041.555648035486
14343.159120459453,5047.649746853083,-25143.387930797093,-32666.69454177553,-36984.49277692947,-36217.22444501215,-23956.800872898206,-32975.90857457025
14441.305630362705,5027.957859987958,-25181.98939347141,-32711.33097545278,-36973.83099482429,-36264.56543976849,-23985.858140690107,-33004.831731895414
14359.61000437856,5051.114267243656,-25169.27125087634,-32665.219326641483,-37185.25614562704,-36238.34684352241,-24129.244581370902,-33067.7071890482
14251.405209470417,5074.7624128773705,-25129.038110856785,-32616.69368942901,-37231.54660839398,-36197.15257849128,-24128.842249970705,-33052.32918886295
14318.862774236533,5054.824656823237,-25139.297561561772,-32651.450652057014,-37031.85612343027,-36217.671479901255,-23992.07192564868,-32989.94547008818
14442.065589674186,5035.177473447022,-25180.916509737555,-32701.160931725615,-36955.569619604306,-36258.75398621011,-23969.094332348628,-32989.677249154716
14383.973405834844,5041.95005201698,-25183.956346983476,-32682.094893705238,-37158.05407262493,-36253.03193962955,-24115.319444575245,-33061.80632851199
14256.791979884147,5063.139505760611,-25143.320875563728,-32625.544980233313,-37258.5922191849,-36208.574319907944,-24155.954915994993,-33070.36704663838
14309.251524120751,5068.727441874438,-25121.080889830697,-32626.729622689443,-37064.60142905729,-36200.751209348586,-24010.892094480052,-32993.76761839004
14442.110293163098,5043.849950295681,-25162.185747884007,-32682.340762894248,-36937.84468625125,-36245.141773836825,-23947.07786406015,-32973.98632454709
14414.61764748307,5042.307679928265,-25183.866940005653,-32683.838329772752,-37113.484694181054,-36253.6577884743,-24084.161112804548,-33048.261171372076
14278.87550340599,5066.447563939996,-25149.154680866563,-32636.74320420542,-37263.3978442428,-36216.35272697839,-24166.102607977704,-33075.28443041854
14281.73652669627,5063.05009878279,-25134.290770803782,-32640.61005599619,-37114.51287442599,-36215.90569208928,-24050.52173739931,-33015.00177562258
14419.982066152343,5040.072505482734,-25167.080779919717,-32693.09195197725,-36950.22755267949,-36256.09412861993,-23962.187643311936,-32986.90563284226
14432.767263980779,5038.9549182599685,-25184.93982373951,-32693.65074558863,-37074.86087976228,-36264.34192232393,-24065.89973758456,-33040.281598601534
14294.87935243599,5062.737174360415,-25158.83298621571,-32645.79566070982,-37264.42602448774,-36230.76960215207,-24181.279442462856,-33085.47682589017
14273.801657414635,5074.650654155094,-25121.818497397722,-32626.997843622907,-37148.241656809056,-36208.1943402522,-24072.694667898973,-33022.86958967085
14401.541876976715,5048.342650931198,-25153.714436735445,-32680.41851287109,-36949.758166045925,-36242.52661973555,-23952.17406179596,-32976.84734783737
14447.027676943264,5037.23383393691,-25191.757105798377,-32707.464123662012,-37040.05921364537,-36271.40507357181,-24046.476071652898,-33034.22427585415
14323.042550449676,5057.372755691142,-25165.583213041213,-32649.75191947841,-37247.59516091289,-36234.94937836521,-24178.708991850497,-33085.63328810135
14256.702572906324,5067.05106104029,-25131.899134147065,-32625.097945344205,-37189.30181137345,-36205.48977917311,-24103.830647925217,-33039.164011378765
14373.781010363224,5054.422325423041,-25148.573535510724,-32672.930678478562,-36969.36064593323,-36235.418764998765,-23958.633715943542,-32977.85317633786
14446.960621709899,5035.624508336128,-25188.78432378582,-32709.632242874177,-37001.25658527095,-36273.57319278398,-24015.76477477131,-33015.739383189604
14337.817053534634,5052.656537611072,-25174.702724778977,-32664.526422563365,-37222.29298618949,-36245.67821570375,-24161.274631175358,-33080.51473862109
14250.332325736563,5071.990796564913,-25132.25676205835,-32615.821971395253,-37223.90231179027,-36204.57335765044,-24128.77519473734,-33053.75970050808
14343.002658248266,5050.153142232078,-25139.990465639887,-32651.13772763464,-37004.207015539054,-36221.448924714205,-23983.13122786656,-32981.34004847289
14450.916880478488,5037.479703125919,-25173.339268367206,-32692.08612347676,-36966.387863920674,-36258.485765276644,-23988.339184324646,-32995.15342654627
14370.897635328489,5052.768296333349,-25167.371352597638,-32657.195050382026,-37175.89076470027,-36239.620892956365,-24132.329122105733,-33060.53227907804
14250.309973992107,5067.498095929396,-25133.374349281115,-32613.94442486101,-37241.38137595432,-36201.75703784908,-24145.02491295635,-33056.084281931435
14316.269971879718,5057.506866157873,-25132.21205856944,-32644.78983220933,-37029.50919026246,-36213.13407577683,-23989.926158180973,-32983.172891518225
14442.646735030025,5033.657554824061,-25165.78437874131,-32696.400010156634,-36941.59977931974,-36251.66848321778,-23963.595803212622,-32980.26716473904
14387.795554136701,5037.61381359265,-25180.55888182627,-32684.17360593958,-37142.94429337315,-36250.46148901719,-24109.86561892815,-33050.09401441742
14251.338154237052,5054.131752745122,-25144.617276742134,-32632.384614036637,-37259.396881985296,-36208.708430374674,-24161.07346547526,-33063.840337257425
14293.582951257582,5054.735249845416,-25118.532790962792,-32626.059070355783,-37067.10482443629,-36197.28668895801,-24015.362443371112,-32985.74334213058
14428.252211600806,5025.543871586785,-25155.591983269693,-32685.559414095813,-36920.65619476511,-36244.873552903366,-23937.377206966547,-32962.16225173024
14402.525353732748,5017.139615671589,-25183.755181283377,-32692.264937432403,-37094.753932327505,-36256.02707338656,-24076.42740922301,-33038.046424156004
14257.753104895724,5034.641031580095,-25159.660000760556,-32640.99003565193,-37259.1957162852,-36222.05242181449,-24169.70123883501,-33074.01038098459
14253.908604849412,5037.3679444036425,-25146.137195365096,-32639.246599584414,-37121.48661869605,-36217.91734909026,-24058.881289825596,-33019.22625532463
14411.980141637343,5035.4903978693965,-25152.194518112483,-32670.114358677194,-36932.435564093066,-36244.158297080794,-23951.749378651308,-32974.96980130313
14429.325095334661,5026.482644853908,-25182.570538827247,-32688.398085641635,-37056.66655977566,-36264.006646157104,-24059.842414837174,-33036.079470643934
14290.386651800472,5048.767334075848,-25160.59877402768,-32639.514820517878,-37252.736062137614,-36229.94258760722,-24170.3047359353,-33081.52056712157
14259.563596196604,5061.217255737455,-25129.21692481243,-32620.202913308494,-37152.48848825556,-36203.41106693877,-24078.684935412995,-33027.25053158409
14394.03169083973,5041.637127594606,-25150.585192511702,-32672.573050567276,-36945.95836948852,-36238.05627084449,-23958.678419432454,-32978.277859482514
14445.23953738684,5035.155121702566,-25185.565672584256,-32693.695449077542,-37022.80366692587,-36267.85114620342,-24038.94353377146,-33026.35646180588
14320.829727748602,5058.043308024801,-25167.080779919717,-32646.399157810112,-37240.934341065215,-36236.98338711064,-24174.64097435963,-33082.16876771078
14251.114636792498,5068.347462218698,-25135.36365453764,-32615.330233017237,-37198.26486090003,-36203.20990123867,-24116.25821784237,-33040.72863349064
14361.331088701618,5042.911177028558,-25153.334457079705,-32664.928753963562,-36981.229422239,-36233.22829404215,-23972.93883239494,-32979.64131589429
14444.792502497734,5029.880110011114,-25190.438352875513,-32701.47385614799,-36999.64725967017,-36270.82392821598,-24012.724937525385,-33011.269034298544
14342.622678592525,5051.3377846882095,-25179.106018436672,-32663.02885568486,-37221.86830304484,-36250.68500646174,-24162.772198053863,-33076.89375601933
14245.861976845501,5070.739098875416,-25137.665884216534,-32619.666471441567,-37229.78082058201,-36205.78035185103,-24135.838345985216,-33046.785956238025
14330.440977864382,5045.325165429731,-25150.31697157824,-32660.95014345052,-37017.10397208977,-36227.103916061395,-23991.736649481853,-32982.99407756258
14438.33284835015,5023.778083774815,-25193.478190121437,-32706.391239928158,-36981.430587939096,-36270.935686938254,-24004.18657114346,-33001.05428708247
14362.98511779131,5034.350458902176,-25196.138047711618,-32681.446693116035,-37196.85670099935,-36259.37983505486,-24158.123035207158,-33072.91514550628
14252.768665882191,5067.05106104029,-25139.16345109504,-32613.45268648299,-37254.077166804935,-36206.07092452895,-24163.241584687425,-33056.68777903173
14319.823899248113,5066.849895340192,-25125.238314299386,-32624.60620696619,-37042.0932223908,-36201.98055529363,-23998.375117585078,-32971.52763265701
14446.178310653962,5043.604081106673,-25165.60556478567,-32676.17168142458,-36946.338349144266,-36242.057233101994,-23959.97482061086,-32968.19722273317
14393.271731528252,5041.368906661142,-25181.430599860025,-32666.113396419692,-37146.006482363526,-36247.667520960276,-24112.97251140744,-33046.74125274912
14256.791979884147,5058.378584191631,-25144.907849420055,-32616.917206873564,-37267.62232394485,-36212.97761356564,-24165.856738788694,-33064.73440703564
14283.144686596954,5051.494246899396,-25129.55220097926,-32625.36616627767,-37089.993010758524,-36211.658860642776,-24033.24383893536,-33000.47314172663
14417.881002173544,5027.42141812103,-25169.003029942876,-32684.642992573143,-36949.489945112466,-36255.02124488607,-23965.585108469142,-32979.97659206112
14411.980141637343,5026.773217531827,-25182.727001038435,-32680.12794019317,-37103.87344406527,-36261.97263741167,-24087.67033668403,-33043.94728469221
14270.784171913168,5046.532159630318,-25151.322800078728,-32624.919131388564,-37266.90706812228,-36218.096163045906,-24175.915023793583,-33070.16588093828
14266.9173201224,5051.76246783286,-25127.607599211646,-32614.36910800566,-37129.421487977685,-36201.57822389343,-24066.637345151586,-33006.61987145184
14399.08318508663,5025.409761120053,-25163.280983362318,-32672.617754056188,-36949.40053813464,-36244.381814525346,-23961.986477611837,-32971.43822567919
14427.715769733879,5024.649801808572,-25183.755181283377,-32683.927736750575,-37057.53827780941,-36259.84922168842,-24055.75204560185,-33024.411860038264
14292.30890182363,5045.682793341016,-25159.101207149175,-32637.145535605618,-37255.35121623889,-36226.14279104982,-24175.423285415567,-33073.4068838843
14257.127256050975,5065.888770328614,-25124.63481719909,-32605.02607882334,-37161.093909870855,-36198.56073839196,-24082.19415929248,-33016.3428802899
14378.206655765374,5038.99962174888,-25153.423864057528,-32660.592515539232,-36959.481174883986,-36231.373099252356,-23960.086579333136,-32965.5820686319
14432.007304669298,5020.984115717902,-25191.868864520653,-32695.88592003416,-37024.502399504476,-36265.41480605779,-24033.66852208001,-33013.97359537764
14319.958009714845,5048.901444542581,-25166.812558986254,-32639.4030617956,-37233.78178283951,-36230.85900912988,-24163.442750387523,-33067.03663671454
14238.798825597623,5053.818828322748,-25133.217887069928,-32608.378840491634,-37200.20946266764,-36202.137017504814,-24113.285435829814,-33030.75975546357
14344.522576871226,5026.482644853908,-25149.534660522302,-32660.458405072503,-36984.96216356303,-36232.557741708486,-23976.805684185707,-32974.45571118066
14430.085054646142,5008.377731845108,-25195.959233755977,-32706.61475737271,-36998.88730035869,-36273.43908231724,-24020.32453064019,-33010.82199940944
14334.196070932874,5031.5564908452625,-25182.727001038435,-32665.08521617475,-37213.30758491845,-36249.969750639175,-24157.631296829142,-33072.62457282836
14231.445101671829,5053.081220755723,-25140.482204017902,-32607.954157346983,-37232.2395124721,-36206.473255929144,-24136.665360530063,-33046.785956238025
14324.674227794914,5050.130790487622,-25140.370445295626,-32640.61005599619,-37017.30513778987,-36224.15348579329,-23990.484951792354,-32983.77638861852
14439.47278731737,5029.835406522204,-25179.26248064786,-32687.213443185505,-36967.34898893225,-36266.46533804719,-23989.322661080678,-32999.44496148169
14361.912234057456,5030.170682689033,-25187.30910865177,-32671.254297644413,-37183.602116537346,-36261.279733333555,-24146.723645534952,-33074.6585815738
14236.697761618825,5052.4553719109745,-25154.139119880096,-32620.26996854186,-37267.778786156035,-36220.93483459173,-24176.63027961615,-33074.70328506271
14296.443974547861,5044.967537518446,-25137.82234642772,-32636.6537972276,-37064.60142905729,-36223.70645090419,-24026.270094665302,-32998.483836470106
14431.068531402176,5026.884976254103,-25165.426750830025,-32680.574975082276,-36946.181886933075,-36255.11065186389,-23966.814454414183,-32980.803606605965
14393.584655950626,5035.982136247413,-25181.072971948743,-32671.097835433226,-37128.77328738848,-36251.60142798441,-24101.304900801766,-33044.26020911458
14254.288584505151,5053.014165522357,-25147.590058754693,-32619.93469237503,-37263.1966785427,-36215.50336068909,-24167.01902950037,-33062.789805268025
14276.729735938281,5053.058869011267,-25126.624122455614,-32616.760744662377,-37089.00953400249,-36204.90863381727,-24032.081548223683,-32991.86772011134
14414.818813183167,5030.952993744969,-25162.27515486183,-32673.578879067765,-36935.83302925027,-36250.75206169511,-23952.64344842952,-32968.57720238891
14403.441775255416,5020.782950017804,-25189.7454487974,-32682.094893705238,-37098.41961841817,-36268.633457259355,-24086.888025628094,-33042.11444164687
14267.118485822499,5047.850912553181,-25154.89907919158,-32620.985224364427,-37266.77295765554,-36222.23123577014,-24181.659422118595,-33073.65275307331
14249.952346080821,5045.8169038077485,-25136.905924905055,-32621.052279597796,-37141.69259568365,-36210.295404231,-24073.85695861065,-33017.48281925712
14379.592463921603,5016.714932526938,-25167.59487004219,-32677.959820981006,-36953.0215207364,-36250.88617216184,-23959.41602699948,-32977.47319668212
14411.935438148432,5009.249449878866,-25195.42279188905,-32691.124998465184,-37051.77152773995,-36275.338980595945,-24048.644190865063,-33029.75392696309
14283.68112846388,5037.055019981268,-25172.13227416662,-32633.07751811475,-37253.585428426915,-36235.59757895441,-24171.645840602618,-33079.88888977634
14236.831872085557,5045.95101427448,-25138.805823183757,-32613.005651593885,-37177.12011064531,-36201.89114831581,-24091.358374519157,-33028.36811880686
14365.13088525902,5029.433075122008,-25155.591983269693,-32665.599306297223,-36969.00301802195,-36237.519828977565,-23963.908727634996,-32978.81430134944
14430.979124424353,5019.106569183657,-25188.78432378582,-32694.120132222193,-37017.640413956695,-36267.49351829213,-24026.65007432104,-33018.17572333523
14316.35937885754,5039.826636293726,-25178.726038780933,-32645.84036419873,-37238.85562883087,-36245.2535325591,-24176.11618949368,-33080.71590432119
14242.285697732652,5063.675947627538,-25134.91661964853,-32600.153398532082,-37212.79349479598,-36205.02039253955,-24123.58959002371,-33042.47206955816
14349.529367629215,5044.319336929243,-25150.004047155864,-32647.919076433074,-36991.37711422171,-36232.4012794973,-23971.93300389445,-32981.60826940635
14440.679781517958,5020.425322106519,-25190.393649386606,-32696.176492712082,-36985.99034380798,-36276.97065794119,-23999.7162222524,-33010.71024068716
14344.477873382315,5026.974383231925,-25180.961213226466,-32658.625562027166,-37205.57388133692,-36262.620838000876,-24151.39516012611,-33079.79948279852
14236.697761618825,5046.375697419131,-25145.31018082025,-32610.681070170533,-37238.11802126384,-36217.246796756604,-24140.196936154003,-33058.36415986588
14313.140727655975,5032.361153645654,-25155.569631525235,-32646.712082232487,-37030.023280384936,-36232.51303821958,-23997.861027462608,-32989.40902822126
14418.909182418489,5003.1474236425665,-25207.872713550656,-32704.08901024926,-36976.64731462566,-36277.060064919,-23993.725954738376,-33000.96488010465
14361.733420101813,5024.985077975402,-25197.61326284567,-32671.343704622235,-37170.59340126436,-36259.08926237694,-24127.188220881013,-33062.56628782347
14240.832834343057,5050.108438743167,-25155.591983269693,-32617.252483040393,-37253.63013191582,-36208.46256118567,-24151.84219501522,-33054.407901097286
14290.9230936674,5047.940319531002,-25146.986561654398,-32630.149439591103,-37061.963923211566,-36212.50822693208,-24011.830867747172,-32985.07278979693
14424.877098188055,5029.835406522204,-25184.917471995053,-32683.212480928003,-36947.67945381159,-36256.49646002012,-23962.612326456587,-32974.61217339184
14390.142487304509,5026.437941364997,-25197.546207612304,-32677.89276574764,-37129.82381937788,-36266.33122758046,-24100.164961834547,-33045.98129343764
14255.853206617023,5051.874226555136,-25158.765930982347,-32616.514875473367,-37264.40367274328,-36225.51694220507,-24161.520500364364,-33060.62168605586
14266.872616633489,5046.554511374773,-25142.9855993969,-32621.901645887097,-37106.220377233076,-36213.4470001992,-24042.89979254005,-33001.32250801593
14409.744967191813,5026.482644853908,-25168.98067819842,-32677.37867562517,-36938.20231416253,-36250.103861105905,-23950.475329217355,-32969.71714135613
14416.584600995136,5021.967592473936,-25187.957309240977,-32675.54583257983,-37076.13492919623,-36262.9114106788,-24061.965830560428,-33028.50222927359
14279.16607608391,5045.593386363195,-25156.575460025724,-32617.498352229402,-37257.206411028674,-36220.28663400253,-24168.44954114551,-33066.433139614244
14258.267195018196,5054.6234911231395,-25127.428785256005,-32601.718020643955,-37135.791735147446,-36198.20311048068,-24064.692743383974,-33004.71997317314
14395.551609462693,5033.56814784624,-25149.534660522302,-32657.84325097123,-36938.17996241808,-36232.8036108975,-23945.89322160402,-32954.00386500405
14427.604011011603,5018.413665105541,-25187.55497784078,-32682.072541960784,-37036.75115546598,-36263.537259523546,-24036.306027925733,-33013.77242967754
14291.884218678979,5036.384467647608,-25174.143931167597,-32632.74224194792,-37249.47270744714,-36230.76960215207,-24170.952936524503,-33068.89183150433
14239.134101764454,5054.981119034424,-25141.599791240667,-32599.68401189852,-37180.539927546975,-36197.57726163593,-24096.991014121893,-33020.567359991954
14360.45937066786,5033.679906568516,-25155.234355358407,-32651.13772763464,-36958.87767778369,-36224.17583753775,-23951.16823329547,-32958.004827261546
14434.756569237301,5025.253298908866,-25186.906777251577,-32674.540004079343,-36998.30615500285,-36254.79772744152,-24009.6180450461,-32995.77927539102
14316.158213157441,5032.741133301393,-25182.637594060612,-32631.065861113773,-37226.65157635827,-36238.39154701132,-24165.49911087741,-33064.82381401346
14229.276982459663,5045.481627640918,-25145.198422097972,-32596.800636863787,-37220.34838442187,-36206.87558732934,-24130.96566569396,-33034.93953167672
14339.26991692423,5040.586595605207,-25147.27713433232,-32624.69561394401,-36994.17108227862,-36219.481971202134,-23975.241062073837,-32965.71617909863
14442.825548985667,5028.606060577162,-25182.011745215863,-32664.682884774553,-36981.162367005636,-36254.39539604133,-24001.347899597633,-32990.638374166294
14351.921004285932,5041.033630494312,-25176.379105613127,-32635.69267221602,-37203.115189446835,-36242.52661973555,-24156.69252356202,-33060.06289244448
14238.038866286144,5056.1434097461,-25137.82234642772,-32586.78705534781,-37250.433832458715,-36206.11562801786,-24153.987962482926,-33046.67419751575
14315.711178268335,5046.487456141407,-25132.167355080528,-32611.619843437657,-37033.8901321757,-36209.02135479705,-23995.93877743945,-32970.924135556714
14440.031580928753,5028.427246621519,-25168.26542237585,-32669.577916810267,-36956.01665449341,-36250.26032331709,-23970.79306492723,-32972.24288847958
14379.637167410514,5035.646860080584,-25175.8426637462,-32644.27574208686,-37156.17652609069,-36247.13107909335,-24113.754822463372,-33045.310741103975
14257.931918851367,5065.329976717231,-25130.15569807955,-32587.189386748003,-37250.65734990327,-36200.43828492621,-24146.701293790495,-33049.26699987257
14303.417718817916,5061.820752837748,-25113.39188973807,-32602.656793911076,-37059.84050748831,-36201.01943028205,-24004.70066126593,-32981.205938006155
14440.18804313994,5041.324203172231,-25145.84662268718,-32655.69748350352,-36928.45695358002,-36241.38668076834,-23941.713445390877,-32964.55388838695
14415.221144583362,5050.823694565737,-25161.425788572527,-32647.114413632684,-37100.8559585638,-36242.280750546546,-24076.56151968974,-33035.40891831028
14270.225378301786,5066.916950573558,-25135.49776500437,-32601.002764821384,-37255.060643560966,-36208.95429956369,-24160.335857908234,-33067.617782070374
14280.037794117665,5068.347462218698,-25109.68150015849,-32598.5440729313,-37093.85986254929,-36196.906709302275,-24021.151545185036,-32999.9366998597
14419.959714407887,5047.38152591962,-25136.816517927233,-32652.36707357968,-36916.610529018704,-36232.98242485314,-23914.712538088865,-32964.59859187587
14424.47476678786,5039.133732215611,-25171.729942766422,-32667.11922492018,-37057.203001642585,-36252.65195997381,-24034.406129647035,-33035.58773226592
14289.11260236652,5057.28334871332,-25144.907849420055,-32613.653852183088,-37241.40372769877,-36215.41395371127,-24142.25329664389,-33077.206680441705
14258.356601996018,5058.982081291924,-25122.73491892039,-32605.92014860155,-37135.83643863636,-36201.84644482689,-24048.33126644269,-33024.00952863807
14394.098746073098,5048.5214648868405,-25149.422901800026,-32657.64208527113,-36937.91174148461,-36231.59661669691,-23929.30822721818,-32981.27299323952
14436.343543093628,5034.864549024648,-25186.817370273755,-32684.6653443176,-37022.22252157003,-36259.93862866624,-24012.210847402916,-33034.693662487705
14300.8249164611,5042.0618107392565,-25175.6414980461,-32643.806355453296,-37238.45329743067,-36237.385718510835,-24149.987000225425,-33094.819855072485
