Fp1,Fp2,C3,C4,P7,P8,O1,O2
14706.442023091558,5022.168758174033,-23505.675614556745,-31526.599112343683,-34936.648301678695,-34901.91369079515,-21150.159376878666,-30687.581680724823
14707.179630658584,4974.514838995318,-23519.89132403032,-31559.47852843744,-34854.10330940525,-34960.09528161231,-21127.56176323435,-30811.14212407376
14724.949267500553,4957.818085887205,-23554.692990147232,-31586.56884271727,-34866.19560315557,-34967.001970649006,-21127.986446379,-30755.396873402224
14727.72088381301,5008.377731845108,-23544.23237374215,-31552.258914978378,-34949.76877567396,-34915.615310146255,-21137.37417905023,-30616.994871734965
14702.329302111782,5022.816958763237,-23519.46664088567,-31527.18025769952,-34968.11955787177,-34912.82134208934,-21165.939708464113,-30669.476767716023
14702.351653856238,4983.097908866156,-23522.21590545367,-31549.666112621562,-34885.50751036495,-34946.438365750124,-21164.933879963624,-30817.825295665898
14729.017284991418,4963.227208045389,-23548.18863251074,-31577.96342110198,-34851.44345181507,-34964.766796203476,-21130.065158613346,-30777.39098994625
14733.711151327034,5002.074539908712,-23549.596792411423,-31556.39398770261,-34929.27222600844,-34916.308214224366,-21135.362522049254,-30633.06577599833
14705.369139357703,5025.141540186589,-23521.679463586745,-31526.33089141022,-34963.4033397917,-34899.96908902754,-21153.735655991513,-30651.97535180752
14697.076642164784,4990.719853725416,-23515.5997890949,-31543.42997591853,-34888.703809822066,-34949.657016951685,-21152.998048424488,-30797.57461518939
14721.06006396533,4957.862789376115,-23540.186707995737,-31577.33757225723,-34844.80498371184,-34981.3070871004,-21129.618123724238,-30797.842836122854
14722.803500032844,4978.158173341533,-23553.24012675764,-31569.268592508866,-34917.91753982515,-34928.86989460825,-21139.877574429225,-30659.060854799853
14708.520735325901,5016.022028448824,-23518.93019901874,-31529.080155978223,-34962.01753163547,-34892.324792423824,-21164.844472985802,-30636.10561324425
14692.04749966234,4984.439013533475,-23507.575512835447,-31543.944066041004,-34886.312173165345,-34943.152659315194,-21154.160339136164,-30776.72043761259
14713.505174339436,4948.072725304691,-23535.671655615766,-31580.690333925526,-34827.34827129224,-34976.16618587568,-21131.495670258486,-30813.24318805256
14733.554689115846,4974.403080273042,-23553.37423722437,-31578.253993779897,-34890.648411589675,-34940.78337440293,-21139.09526337329,-30681.12202657724
14716.455604607536,5018.212499405444,-23528.206172967693,-31541.127746239636,-34955.26730480997,-34901.980746028516,-21162.877519473735,-30627.276674184406
14697.389566587159,5006.075502166213,-23509.676576814247,-31535.964493270458,-34906.92048155314,-34927.57349342984,-21162.51989156245,-30747.93139075415
14709.794784759855,4962.713117922916,-23533.727053848157,-31574.364790244676,-34831.25982657192,-34971.96405791808,-21131.361559791752,-30807.789362405463
14727.519718112913,4970.469173248908,-23560.303278005515,-31581.897328126113,-34877.796158527875,-34945.030205849434,-21130.020455124435,-30690.308593548372
14721.350636643248,5021.274688395821,-23540.365521951382,-31540.121917739147,-34957.65894146668,-34895.78931281439,-21146.71720823255,-30595.313679613315
14699.557685799324,5020.224156406422,-23518.997254252106,-31531.069461234747,-34929.36163298626,-34921.98555731602,-21161.33524910632,-30713.129724637238
14702.776337000889,4967.205818558433,-23540.052597529007,-31574.49890071141,-34848.73889073597,-34979.2060231216,-21155.94847869259,-30831.81748769492
14735.812215305832,4970.782097671282,-23555.85528085891,-31578.119883313168,-34864.94390546607,-34953.34505478681,-21142.80565295287,-30717.041279916917
14733.10765422674,5015.105606926156,-23539.538507406534,-31536.67974909303,-34948.15945007318,-34896.795141314884,-21160.619993283748,-30591.96091794502
14704.475069579492,5017.474891838418,-23520.092489730418,-31520.675900063026,-34946.03603434993,-34913.98363280101,-21187.598548841306,-30683.088980089306
14707.961941714519,4972.8608099056255,-23533.838812570433,-31555.16464175757,-34859.60183854125,-34984.324572601865,-21164.57625205234,-30812.594987463355
14732.280639681894,4960.097963821646,-23562.09141756194,-31576.555261201294,-34855.80204198385,-34967.605467749294,-21140.078740129324,-30745.31623665288
14737.578003117802,5009.540022556785,-23551.116711034385,-31545.374577686143,-34941.83390639233,-34910.5414641549,-21159.70357176108,-30616.01139497893
14709.548915570846,5022.213461662944,-23527.267399700573,-31525.77209779884,-34956.02726412145,-34917.358746213766,-21189.990185498023,-30669.141491549195
14702.061081178319,4978.98518788638,-23532.184783480738,-31549.107319010178,-34880.67953356261,-34970.265325339475,-21183.776400539446,-30809.353984517336
14725.843337278766,4954.711193407917,-23559.65507741631,-31576.73407515694,-34852.60574252674,-34976.836738209335,-21156.99901068199,-30777.99448704654
14733.979372260497,4993.8714496936145,-23554.26830700258,-31550.0460922773,-34915.95058631308,-34923.17019977215,-21143.967943664546,-30628.68483408509
14707.336092869771,5020.782950017804,-23526.619199111366,-31517.256083161366,-34951.266342552466,-34899.879682049715,-21165.827949741837,-30637.089090000285
14693.142735140651,4981.622693732106,-23529.055539256995,-31543.094699751702,-34887.1838911991,-34957.59188623332,-21177.00382196949,-30787.784551117966
14716.969694730007,4952.252501517833,-23559.118635549385,-31581.115017070177,-34853.29864660485,-34986.67150576967,-21163.212795640564,-30796.457027966622
14730.559555358835,4982.628522232595,-23564.28188851856,-31566.273458751853,-34917.76107761396,-34929.786316130914,-21159.077722916332,-30649.24843898397
14711.068834193808,5017.988981960891,-23539.404396939804,-31530.175391456534,-34968.320723571866,-34897.55510062636,-21182.9493859946,-30622.694566571066
14691.712223495511,4988.484679279885,-23534.598771881912,-31543.519382896353,-34910.89909206618,-34951.08752859682,-21198.237979202033,-30770.439597420645
14708.744252770455,4952.699536406939,-23556.70464714821,-31574.945935600514,-34845.90021919015,-34986.51504355849,-21173.963984723567,-30817.601778221346
14719.361331386726,4964.613016201618,-23582.722077694187,-31576.331743756742,-34911.122609510734,-34956.4519472661,-21172.555824822884,-30693.348430794293
14713.639284806168,5015.977324959913,-23543.405359197302,-31519.96064424046,-34968.052502638406,-34902.405429173166,-21185.18456044013,-30620.034708980886
14695.735537497467,5002.454519564452,-23518.192591451716,-31510.170580169033,-34905.959356541556,-34922.879627094226,-21170.700630033094,-30725.020852687463
14716.477956351991,4964.322443523699,-23533.592943381424,-31540.926580539537,-34826.342442791756,-34969.48301428354,-21140.861051185257,-30805.889464126765
14731.72184607051,4965.104754579635,-23563.544280951533,-31555.00817954638,-34867.13437642269,-34947.287732039425,-21133.0379406259,-30695.427143028635
14713.460470850525,5003.773272487316,-23553.173071524274,-31527.694347821995,-34953.0991855978,-34898.71739133804,-21165.962060208567,-30606.847179752254
14695.020281674897,5005.159080643544,-23528.049710756506,-31514.953853482468,-34933.63081617723,-34921.9408538271,-21178.99312722601,-30702.75851520998
14697.85895322072,4950.240844516855,-23549.79795811152,-31561.020798804857,-34850.07999540329,-34979.49659579952,-21161.156435150675,-30819.836952666876
14721.730616298988,4948.877388105081,-23572.976717111676,-31575.236508278434,-34863.22282114301,-34958.5530112449,-21139.005856395466,-30734.497992336514
14723.6752180666,5000.733435241394,-23555.89998434782,-31534.891609536604,-34939.71049066907,-34896.83984480379,-21151.992219924,-30594.687830768566
14705.190325402062,5016.491415082385,-23522.350015920405,-31511.466981347443,-34934.18960978861,-34898.58328087131,-21167.124350920243,-30665.341694991792
14710.19711616005,4980.348644298154,-23527.535620634037,-31540.3454351837,-34849.58825702527,-34954.328531542844,-21156.61903102625,-30799.89919661274
14728.257325679939,4959.6509289325395,-23565.690048419245,-31571.63787742113,-34854.61739952772,-34964.81149969238,-21151.09815014579,-30751.015931488986
14725.619819834212,5000.442862563475,-23565.220661785683,-31550.738996355416,-34938.92817961314,-34917.60461540277,-21159.994144439002,-30617.39720313516
14711.00177896044,5032.0258774788235,-23525.926295033252,-31516.89845525008,-34947.31008378388,-34904.39473442969,-21173.29343238991,-30652.087110529796
14709.05717719283,4995.570182272218,-23531.625989869357,-31541.977112528937,-34868.0284462009,-34963.78331944744,-21168.241938143008,-30798.558091945422
14728.905526269142,4964.79183015726,-23567.43348448676,-31580.600926947707,-34847.12956513519,-34988.99608719302,-21152.349847835285,-30783.33655397136
14737.91327928463,5000.398159074564,-23565.310068763505,-31558.226830747943,-34925.047746306394,-34933.16142954367,-21162.43048458463,-30640.151278990663
14713.035787705874,5027.555528587763,-23538.42092018377,-31524.96743499845,-34967.65017123821,-34912.888397322706,-21193.410002399683,-30641.69354935808
14702.888095723165,4998.945295684969,-23528.921428790265,-31534.645740347594,-34890.9836877565,-34954.7979181764,-21186.123333707255,-30781.05667603692
14720.255401164939,4958.153362054034,-23562.449045473226,-31578.00812459089,-34841.18400111008,-34989.3090116154,-21147.633629755215,-30797.73107740058
14729.374912902704,4979.052243119746,-23579.168150325793,-31574.118921055666,-34920.80091485989,-34956.27313331045,-21161.424656084142,-30663.93353509111
14715.919162740609,5021.274688395821,-23546.71341737669,-31527.224961188433,-34982.62584002326,-34909.75915309896,-21192.180656454642,-30626.20379045055
14699.960017199519,4994.139670627078,-23535.38108293785,-31539.853696805683,-34913.33543221181,-34959.11180485628,-21182.547054594404,-30758.593172859335
14712.7228632835,4951.559597439718,-23560.370333238883,-31580.042133336323,-34840.111117376226,-35000.686049543154,-21151.701647246082,-30813.422002008203
14733.040598993373,4969.84332440416,-23573.691972934244,-31576.71172341248,-34890.00021100047,-34961.63755197973,-21145.577269265326,-30683.290145789404
14716.634418563179,5006.299019610765,-23554.648286658325,-31544.167583485556,-34970.01945615047,-34917.53756016941,-21174.2992608904,-30613.038612966375
14697.724842753989,4998.699426495961,-23534.844641070922,-31537.61852236015,-34933.18378128812,-34943.48793548202,-21191.62186284326,-30733.760384769488
14709.191287659562,4956.387574242065,-23558.559841938,-31577.695200168517,-34864.429815343596,-34997.892081486236,-21196.0028047565,-30832.48804002858
14733.264116437927,4966.512914480319,-23575.90479563532,-31582.277307781853,-34894.224690702526,-34979.92127894417,-21190.034888986935,-30724.484410820536
14723.809328533333,5014.457406336953,-23550.826138356464,-31539.429013661033,-34962.95630490259,-34923.661938150166,-21181.317708649363,-30607.025993707895
14692.114554895707,5003.527403298307,-23524.808707810487,-31528.878990278125,-34921.493818938,-34946.863048894775,-21153.355676335774,-30687.626384213734
14695.6684822641,4953.392440485053,-23541.14783300732,-31566.340513985222,-34841.765146465914,-34992.9076424727,-21142.55978376386,-30808.325804272394
14724.457529122536,4953.50419920733,-23562.47139721768,-31577.58344144624,-34851.39874832615,-34969.28184858344,-21138.022379639435,-30736.42024235967
14717.640247063668,4988.305865324243,-23558.671600660276,-31551.990694044915,-34943.01854884846,-34925.07009805085,-21165.515025319462,-30607.495380341457
14696.00375843093,4999.839365463182,-23530.687216602233,-31528.700176322483,-34947.757118672984,-34924.73482188402,-21196.47219139006,-30678.68568643161
14703.044557934352,4968.010481358824,-23533.190611981227,-31552.504784167384,-34868.00609445645,-34977.328476587354,-21195.801639056404,-30817.44531601016
14731.744197814965,4958.2204172874,-23560.102112305416,-31577.449330979507,-34856.18202163959,-34985.509215057995,-21164.553900307885,-30769.52317589798
14732.951192015553,4999.36997882962,-23555.31883899198,-31549.420243432553,-34928.892246352705,-34934.74840339999,-21161.33524910632,-30622.314586915327
14714.48865109547,5025.007429719857,-23522.908809531786,-31516.160847683055,-34945.85722039428,-34916.53173166892,-21189.00670874199,-30654.6352093977
14709.414805104114,4989.177583358,-23522.28296068704,-31536.500935137385,-34860.38414959719,-34965.61616249278,-21170.81238875537,-30794.020687820994
14726.133909956683,4957.706327164928,-23554.916507591788,-31567.68161865254,-34834.299663817845,-34993.7123052731,-21150.98639142351,-30781.079027781372
14734.180537960594,4990.831612447692,-23561.89025186184,-31547.497993409397,-34913.67070837864,-34934.92721735564,-21163.726885763037,-30633.982197520996
14708.364273114716,5017.027856949313,-23535.13521374884,-31512.00342321437,-34958.77652868945,-34900.81845531684,-21194.23701694453,-30632.39522366467
14695.355557841725,4986.875353679104,-23528.250876456605,-31525.70504256547,-34892.05657149036,-34953.52386874245,-21191.75597330999,-30771.735998599055
14715.00274121794,4951.112562550612,-23556.592888425934,-31560.931391827035,-34839.03823364237,-34976.36735157578,-21170.499464332996,-30797.48520821157
14736.996857761964,4980.3709960426095,-23562.7619698956,-31548.280304465334,-34892.816530801836,-34939.3975662467,-21155.792016481402,-30645.515697659936
14716.477956351991,5015.284420881799,-23538.197402739217,-31514.462115104452,-34951.333397785835,-34908.48510366501,-21170.61122305527,-30597.05711568083
14693.187438629562,4986.3612635566315,-23528.31793168997,-31524.47569662043,-34897.935080282106,-34942.28094128143,-21179.9989557265,-30738.4542511051
14714.332188884282,4952.051335817735,-23546.489899932134,-31555.544621413308,-34833.22678008399,-34982.46937781208,-21160.508234561472,-30796.546434944445
14738.695590340567,4976.370033785109,-23563.030190829064,-31550.984865544426,-34891.207205201055,-34945.521944227454,-21171.7958655114,-30671.622535183735
14739.947288030064,5036.406819392064,-23529.726091590655,-31500.022888186326,-34949.925237885145,-34889.15084471117,-21181.630633071738,-30585.277746352884
14720.970656987509,5030.885938511603,-23510.88357101483,-31496.446609073475,-34907.47927516452,-34921.829095104826,-21185.028098228944,-30695.516550006458
14723.831680277788,4985.735414711883,-23536.744539349624,-31540.256028205877,-34836.467783030006,-34975.42857830865,-21165.962060208567,-30792.5678244314
14745.02113402142,4992.239772348377,-23557.039923315042,-31548.079138765235,-34855.53382105038,-34951.53456348593,-21145.800786709882,-30684.050105100883
14742.6294973647,5039.625470593628,-23537.169222494274,-31513.456286603963,-34924.48895269501,-34902.49483615099,-21160.865862472758,-30574.86183343671
14713.214601661517,5031.534139100807,-23519.89132403032,-31506.929577223014,-34919.05747879237,-34924.0419178059,-21181.876502260748,-30674.438854985103
14717.640247063668,4987.36709205712,-23529.055539256995,-31534.042243247302,-34839.03823364237,-34965.035017136935,-21164.33038286333,-30791.517292442
14742.115407242229,4982.919094910514,-23556.6599436593,-31555.52226966885,-34842.3239400773,-34969.840642194824,-21161.581118295326,-30717.08598340583
14743.009477020441,5028.606060577162,-23549.820309855975,-31528.05197573328,-34925.6959468956,-34923.5948829168,-21174.790999268414,-30590.642165022156
14711.6723312941,5030.28244141131,-23525.7027775887,-31510.10352493567,-34932.937912099114,-34928.53461844142,-21181.541226093916,-30654.4340436976
14708.856011492731,4986.607132745639,-23529.927257290754,-31538.95962702747,-34857.0760914178,-34972.94753467412,-21171.706458533583,-30796.14410354425
14739.410846163137,4974.112507595123,-23552.726036635166,-31557.600981903197,-34835.95369290754,-34970.66765673967,-21159.815330483358,-30754.70396932411
14744.30587819885,5010.769368501827,-23552.27900174606,-31530.577722856728,-34906.026411774925,-34923.14784802769,-21159.65886827217,-30601.952147716544
14713.05813945033,5024.85096750867,-23532.90003930331,-31502.213359142945,-34942.169182559155,-34908.59686238728,-21195.37695591175,-30628.90835152964
14705.346787613249,4992.150365370556,-23529.480222401646,-31515.177370927024,-34869.749530523964,-34953.635627464726,-21190.14664770921,-30777.435693435156
14733.509985626935,4969.083365092679,-23549.976772067163,-31542.87118230715,-34819.23458805497,-34973.48397654104,-21143.09622563079,-30760.89540253823
14737.689761840078,4990.60809500314,-23557.978696582162,-31533.81872580275,-34889.731990067005,-34931.66386266516,-21145.599621009784,-30608.83648500878
14712.946380728054,5019.151272672567,-23534.08468175944,-31503.33094636571,-34940.80572614738,-34901.80193207287,-21178.85901675928,-30600.34282211576
14705.413842846614,4995.9278101835025,-23519.444289141215,-31507.398963856576,-34872.610553814244,-34938.97288310205,-21170.052429443887,-30733.35805336929
14718.511965097425,4953.3700887405985,-23551.250821501115,-31547.16271724257,-34816.50767523142,-34981.64236326723,-21151.723998990536,-30768.651457864224
14731.163052459127,4975.453612262441,-23568.126388564873,-31542.133574740124,-34887.42976038811,-34946.52777272794,-21166.498502075494,-30639.25720921245
14720.233049420483,5023.75573203036,-23532.4530044142,-31494.770228239326,-34939.88930462472,-34892.458902890554,-21178.36727838126,-30582.215557362506
14692.114554895707,4992.664455493028,-23525.412204910783,-31508.695365034982,-34892.123626723725,-34934.23431327752,-21182.9493859946,-30716.79541072791
14709.705377782033,4955.806428886227,-23540.56668765148,-31542.87118230715,-34822.54264623435,-34970.73471197304,-21164.978583452536,-30788.09747554034
14731.565383859324,4969.217475559411,-23558.98452508265,-31547.52034515385,-34865.86032698874,-34948.42767100664,-21159.144778149697,-30665.11817754724
14717.081453452285,5008.42243533402,-23541.57251615197,-31511.62344355863,-34946.080737838834,-34897.89037679319,-21192.024194243455,-30586.6188510202
14701.502287566935,5006.410778333042,-23514.03516698303,-31499.2852806193,-34908.17217924263,-34914.631833390216,-21199.71319433608,-30694.913052906166
14708.900714981643,4961.5284754667855,-23532.676521858757,-31538.311426438264,-34827.05769861433,-34972.56755501837,-21172.980507967535,-30792.701934898134
14732.168880959616,4963.115449323112,-23553.821272113477,-31549.643760877105,-34853.320998349314,-34959.69295021212,-21165.42561834164,-30690.42035227065
14729.173747202605,5008.131862656101,-23535.89517306032,-31517.166676183544,-34926.47825795153,-34900.66199310565,-21172.555824822884,-30575.71119972601
14709.303046381838,5014.055074936757,-23506.502629101593,-31502.414524843043,-34909.110952509756,-34913.11191476726,-21182.14472319421,-30660.178442022618
14706.91140972512,4964.948292368447,-23524.495783388113,-31544.10052825219,-34830.41046028262,-34979.429540566154,-21181.317708649363,-30794.892405854753
14730.380741403193,4956.02994633078,-23554.13419653585,-31566.564031429774,-34836.55719000783,-34981.64236326723,-21161.692877017605,-30726.18314339914
14736.68393333959,5000.644028263572,-23537.772719594566,-31532.298807179788,-34910.20618798807,-34928.55697018588,-21157.84837697129,-30591.133903400172
14715.852107507242,5017.407836605053,-23508.782507036034,-31509.365917368643,-34922.56670267185,-34924.17602827263,-21178.680202803636,-30647.236781982992
14711.71703478301,4976.191219829467,-23513.342262904916,-31539.071385749747,-34842.65921624413,-34969.1030346278,-21163.168092151653,-30783.314202226902
14734.672276338611,4956.298167264244,-23543.04773128602,-31565.781720373838,-34820.665099700105,-34971.09233988432,-21141.241030841,-30748.713701810088
14741.333096186292,4996.374845072609,-23545.819347598477,-31543.273513707343,-34905.37821118572,-34925.114801539756,-21159.05537117188,-30612.658633310635
14713.661636550623,5020.224156406422,-23521.120669975364,-31515.736164538404,-34942.795031403904,-34915.57060665734,-21188.269101174963,-30637.849049311764
14710.331226626782,4992.105661881646,-23501.384079621326,-31521.882894263614,-34834.9702161515,-34950.77460417445,-21122.577324220816,-30763.063521750395
14733.39822690466,4960.79086789976,-23531.156603235795,-31556.639856891616,-34797.01695406639,-34972.92518292966,-21091.307233727843,-30761.856527549808
14742.048352008862,4986.98711240138,-23543.964152808687,-31543.273513707343,-34880.500719606964,-34930.210999275565,-21112.764908404937,-30631.00941550844
14728.704360569045,5026.750865787371,-23509.363652391872,-31499.061763174745,-34928.82519111934,-34890.55900461185,-21131.294504558387,-30606.601310563245
14709.191287659562,4992.686807237484,-23504.781544778532,-31514.216245915446,-34869.36955086822,-34934.74840339999,-21131.026283624924,-30746.255009920005
14723.049369221852,4952.185446284467,-23537.03511202754,-31560.327894726743,-34820.955672378026,-34976.03207540895,-21113.65897818315,-30793.23837676506
14744.976430532508,4979.476926264397,-23550.826138356464,-31559.880859837638,-34878.04202771688,-34939.68813892462,-21118.017568351934,-30661.228974012018
14730.179575703094,5020.000638961868,-23526.596847366913,-31527.783754799817,-34949.32174078486,-34899.81262681635,-21142.269211085943,-30602.421534350102
14713.415767361614,5007.304848111254,-23505.80972502348,-31527.18025769952,-34885.0828272203,-34916.039993290906,-21128.522888245927,-30723.635044531235
14726.223316934505,4967.742260425361,-23529.36846367937,-31568.95566808649,-34813.13256181867,-34967.04667413791,-21104.494762956474,-30799.049830323438
14751.994878291474,4978.582856486185,-23550.51321393409,-31577.71755191297,-34862.86519323173,-34949.88053439624,-21110.75325140396,-30686.821721413344
14739.522604885413,5016.245545893377,-23533.637646870335,-31544.86048756367,-34941.275112780946,-34896.07988549231,-21127.628818467718,-30597.90648197013
14716.500308096447,5010.143519657078,-23510.168315192263,-31535.316292681255,-34908.10512400927,-34910.787333343906,-21131.160394091654,-30700.88096867573
14724.569287844812,4970.312711037721,-23527.289751445027,-31569.313295997777,-34827.90706490363,-34961.83871767983,-21121.169164320134,-30806.58236820488
14748.150378245162,4972.749051183349,-23552.636629657347,-31582.322011270764,-34862.194640898066,-34955.13319434324,-21113.323702016318,-30716.92952119464
14747.524529400413,5017.966630216436,-23530.88838230233,-31544.882839308124,-34916.21880724654,-34899.07501924932,-21116.475297984518,-30596.05128718034
14728.413787891126,5024.649801808572,-23503.26162615557,-31528.275493177833,-34904.52884489642,-34901.01962101694,-21131.741539447492,-30677.54574746439
14731.25245943695,4981.4885832653745,-23515.443326883713,-31559.567935415263,-34837.093631874755,-34950.39462451871,-21132.434443525606,-30811.90208338524
14757.87338708322,4975.36420528462,-23544.522946420067,-31580.57857520325,-34840.91578017661,-34956.094319354816,-21128.120556845734,-30754.033416990453
14758.320421972327,5015.865566237637,-23535.98458003814,-31553.979999301435,-34917.31404272486,-34903.67947860712,-21129.171088835134,-30616.43607812358
14740.729599086,5038.172607204033,-23499.998271465098,-31524.47569662043,-34922.00790906047,-34894.89524303618,-21143.319743075343,-30659.17261352213
14728.972581502509,4991.144536870067,-23508.067251213462,-31555.790490602314,-34845.58729476778,-34951.02047336346,-21134.960190649057,-30797.395801233746
14750.854939324254,4963.5848359566735,-23539.784376595544,-31588.088761340234,-34825.51542824691,-34968.85716543879,-21120.096280586276,-30773.881766066763
14757.985145805496,4996.352493328153,-23542.71245511919,-31568.06159830828,-34902.673650106626,-34917.02347004694,-21126.064196355845,-30627.947226518063
14733.755854815943,5020.559432573251,-23517.07500422895,-31539.361958427664,-34938.90582786868,-34895.29757443638,-21151.41107456816,-30635.278598699406
14728.190270446572,4992.999731659857,-23516.918542017764,-31562.33955172772,-34872.69996079206,-34956.27313331045,-21153.556842035872,-30776.98865854605
14746.853977066754,4961.975510355891,-23547.71924587718,-31599.82342717927,-34829.00230038194,-34984.54809004642,-21126.75710043396,-30785.035286549963
14758.67804988361,4991.546868270262,-23554.961211080696,-31580.086836825234,-34898.15859772666,-34915.257682234966,-21127.60646672326,-30645.40393893766
14739.813177563332,5025.23094716441,-23529.99431252412,-31540.1442694836,-34954.686159454126,-34890.3354871673,-21155.702609503584,-30615.743174045467
14722.177651188094,4999.995827674369,-23521.344187419916,-31547.118013753658,-34899.83497856081,-34938.615255190765,-21168.845435243304,-30757.85556529231
14736.214546706027,4965.909417380026,-23545.640533642832,-31582.947860115513,-34835.976044651994,-34981.28473535594,-21141.0398651409,-30801.217949535603
14759.817988850831,4991.591571759173,-23553.173071524274,-31573.560127444285,-34877.25971666095,-34943.353825015285,-21122.934952132102,-30663.240631012995
14749.223261979016,5032.338801901198,-23528.541449134525,-31532.365862413153,-34938.72701391304,-34891.94481276808,-21145.95724892107,-30602.801514005845
14737.846224051265,5026.840272765193,-23503.663957555767,-31522.352280897176,-34896.12458898123,-34917.425801447134,-21155.300278103387,-30724.842038731822
14742.294221197872,4979.164001842022,-23526.46273690018,-31561.356074971685,-34818.7652014214,-34970.555898017396,-21125.61716146674,-30799.407458234724
14759.505064428457,4983.723757710905,-23552.547222679525,-31576.3540955012,-34862.61932404272,-34964.00683689199,-21123.538449232394,-30692.25319531598
14748.48565441199,5024.605098319662,-23538.018588783576,-31549.24142947691,-34949.657016951685,-34925.0924497953,-21158.206004882577,-30603.784990761877
14723.094072710763,5018.547775572273,-23516.739728062123,-31542.178278229032,-34917.91753982515,-34928.53461844142,-21165.649135786192,-30703.965509410562
14726.782110545888,4973.88899015057,-23531.000141024608,-31576.801130390304,-34835.66312022962,-34978.62487776576,-21152.595717024295,-30814.472533997603
14754.140645759184,4978.649911719551,-23546.84752784342,-31582.210252548488,-34849.543553536365,-34962.06223512438,-21132.389740036695,-30723.053899175397
14757.694573127577,5027.3320111432095,-23529.86020205739,-31545.888667808613,-34924.62306316174,-34910.653222877176,-21129.32755104632,-30597.571205803302
14733.509985626935,5033.478740868419,-23506.18970467922,-31526.33089141022,-34915.97293805754,-34918.83396134782,-21148.81827221135,-30669.387360738205
14733.800558304854,4990.719853725416,-23519.31017867448,-31556.729263869438,-34850.5270302924,-34978.60252602131,-21151.500481545983,-30808.504618228035
14759.974451062018,4977.487621007875,-23550.021475556074,-31580.44446473652,-34849.72236749201,-34980.30125859991,-21138.871745928736,-30751.932353011653
14765.07064879783,5017.430188349508,-23547.495728432623,-31553.62237139015,-34916.375269457734,-34919.459810192566,-21150.271135600942,-30614.6255868227
14741.646020608667,5040.161912460556,-23510.816515781466,-31518.70894655096,-34918.58809215881,-34908.37334494273,-21158.250708371488,-30642.520563902923
14730.179575703094,4999.168813129522,-23515.823306539456,-31544.68167360803,-34846.50371629044,-34965.102072370304,-21150.271135600942,-30778.486225424556
14749.580889890301,4973.285493050277,-23548.479205188658,-31578.34340075772,-34831.25982657192,-34982.73759874554,-21137.195365094587,-30758.682579837154
14765.361221475749,5013.250412136365,-23545.23820224264,-31552.951819056492,-34896.795141314884,-34922.56670267185,-21144.95142042058,-30615.229083922994
14742.338924686781,5040.273671182832,-23519.33253041894,-31525.056841976268,-34934.77075514445,-34900.25966170546,-21164.62095554125,-30615.72082230101
14717.372026130204,4994.27378109381,-23528.541449134525,-31555.455214435486,-34879.15961493964,-34962.375159546755,-21181.697688305103,-30771.98186778806
14734.359351916237,4956.812257386716,-23555.028266314064,-31589.161645074088,-34829.896370160146,-34998.5626338199,-21150.785225723415,-30788.320992984893
14749.089151512284,4988.03764439078,-23560.05740881651,-31573.403665233098,-34890.89428077868,-34950.79695591891,-21145.599621009784,-30644.10753775925
14726.96092450153,5021.5205575848295,-23538.64443762832,-31542.357092184677,-34949.724072185054,-34919.81743810385,-21176.802656269392,-30610.177589676096
14712.611104561223,5000.755786985849,-23523.489954887624,-31548.369711443152,-34894.694077336084,-34956.653112966196,-21187.28562441893,-30754.033416990453
14736.974506017508,4973.263141305822,-23538.309161461493,-31579.21511879148,-34819.815733410804,-34994.49461632903,-21156.350810092787,-30798.602795434334
14750.318497457327,4986.517725767819,-23559.118635549385,-31580.57857520325,-34872.409388114145,-34958.932990900634,-21146.873670443736,-30666.191061281093
14740.997820019464,5030.215386177943,-23531.067196257973,-31540.077214250236,-34934.92721735564,-34914.22950199002,-21149.80174896738,-30586.95412718703
14720.38951163167,5017.430188349508,-23509.050727969498,-31534.176353714032,-34886.28982142089,-34931.686214409616,-21153.109807146768,-30700.098657619794
14731.565383859324,4970.737394182372,-23531.111899746884,-31574.990639089425,-34815.32303277529,-34984.63749702424,-21143.65501924217,-30793.86422560981
14762.231977252004,4982.561466999229,-23543.584173152947,-31574.945935600514,-34839.23939934247,-34958.28479031143,-21132.300333058876,-30683.133683578217
14751.279622468905,5022.973420974425,-23530.977789280154,-31539.272551449845,-34922.38788871621,-34905.24410071899,-21157.80367348238,-30580.67328699509
14718.668427308612,5012.333990613698,-23519.37723390785,-31537.43970840451,-34919.1915892591,-34932.78144988793,-21191.934787265636,-30689.481579003525
14723.161127944128,4970.312711037721,-23526.529792133548,-31564.664133151073,-34828.73407944847,-34975.31681958638,-21164.106865418777,-30799.675679168187
14753.715962614533,4974.783059928783,-23544.41118769779,-31575.124749556155,-34828.51056200392,-34963.96213340308,-21119.626893952714,-30711.073364147353
14755.39234344868,5023.085179696701,-23533.905867803798,-31545.642798619607,-34914.36361245676,-34917.31404272486,-21143.319743075343,-30593.21261563452
14728.078511724296,5029.343668144187,-23510.548294848002,-31529.214266444957,-34915.54825491289,-34927.52878994093,-21169.404228854684,-30661.564250178846
14721.842375021264,4984.506068766841,-23523.735824076633,-31565.06646455127,-34843.03919589987,-34996.6627355412,-21165.47032183055,-30795.764123888508
14734.24759319396,4958.041603331757,-23565.75710365261,-31599.041116123335,-34845.52023953441,-35001.60247106582,-21158.47422581604,-30756.536812369446
14742.517738642424,5002.745092242371,-23559.096283804927,-31570.699104154006,-34925.114801539756,-34945.96897911656,-21167.973717209545,-30618.939473502574
14725.753930300943,5030.304793155765,-23522.84175429842,-31534.891609536604,-34941.4986302255,-34922.67846139413,-21182.323537149852,-30644.44281392608
14716.67912205209,4991.502164781352,-23524.249914199107,-31555.879897580136,-34874.66691430413,-34969.66182823919,-21179.9989557265,-30788.008068562518
14741.400151419659,4968.323405781199,-23549.99912381162,-31583.86428163818,-34840.379338309685,-34992.2594418835,-21162.721057262548,-30771.579536387868
14755.39234344868,5004.577935287707,-23546.579306909956,-31560.573763915752,-34888.077960977316,-34941.409223247676,-21149.13119663372,-30619.11828745822
14736.371008917215,5038.32906941522,-23516.404451895294,-31524.989786742903,-34927.707603896575,-34916.59878690229,-21159.077722916332,-30613.440944366568
14724.166956444617,5006.544888799774,-23513.31991116046,-31540.703063094985,-34864.74273976597,-34964.29740956991,-21160.642345028205,-30758.883745537252
14741.154282230651,4966.915245880514,-23546.46754818768,-31580.332706014244,-34827.258864314426,-35003.144741433236,-21150.13702513421,-30787.09164703985
14754.58768064829,4990.2281153474,-23557.55401343751,-31570.363827987178,-34888.972030755525,-34961.257572323986,-21165.09034217481,-30654.38934020869
14738.852052551754,5028.7401710438935,-23531.782452080544,-31532.656435091074,-34950.46167975207,-34916.53173166892,-21190.884255276236,-30614.6255868227
14724.837508778277,5017.050208693768,-23506.212056423672,-31530.46596413445,-34878.24319341698,-34955.15554608769,-21170.43240909963,-30735.816745259377
14741.511910141935,4980.706272209439,-23519.31017867448,-31563.188918017022,-34797.12871278867,-34997.22152915258,-21122.778489920915,-30782.062504537407
14755.459398682047,4992.060958392734,-23540.164356251284,-31567.86043260818,-34848.85064945825,-34960.29644731241,-21124.410167266153,-30657.29506698788
14744.417636921125,5036.116246714145,-23520.22660019715,-31529.393080400598,-34927.26056900746,-34906.1381704972,-21156.686086259615,-30586.685906253566
14718.735482541977,5017.988981960891,-23507.933140746733,-31528.18608620001,-34904.19356872959,-34941.58803720332,-21174.835702757326,-30706.245387345003
14722.848203521753,4974.067804106213,-23529.65903635729,-31560.707874382482,-34831.148067849645,-34985.84449122482,-21167.61608929826,-30800.39093499076
14754.408866692647,4989.155231613545,-23547.294562732528,-31561.132557527133,-34860.27239087491,-34966.085549126336,-21160.932917706123,-30697.63996572971
14756.576985904812,5038.127903715123,-23521.433594397735,-31515.89262674959,-34926.76883062945,-34905.80289433037,-21156.306106603875,-30584.361324830214
14728.480843124491,5029.075447210723,-23498.858332497875,-31504.80616149976,-34901.556062883865,-34925.13715328421,-21163.793940996402,-30672.226032284027
14722.892907010664,4979.007539630836,-23515.532733861535,-31541.75359508438,-34826.94593989205,-34977.64140100973,-21158.04954267139,-30788.544510429445
14751.749009102467,4984.908400167036,-23535.403434682303,-31553.421205690054,-34836.6242452412,-34967.67252298266,-21145.577269265326,-30707.586492012324
14749.960869546041,5025.409761120053,-23527.08858574493,-31522.374632641633,-34906.67461236413,-34906.24992921948,-21141.956286663568,-30576.649972993135
14725.284543667382,5033.746961801882,-23506.12264944585,-31502.14630390958,-34927.1935137741,-34912.86604557825,-21185.09515346231,-30651.707130874056
14722.848203521753,4994.184374115989,-23510.101259958898,-31526.889685021604,-34842.70391973304,-34962.71043571358,-21171.035906199922,-30779.60381264732
14752.464264925036,4984.751937955849,-23530.262533457582,-31547.408586431575,-34811.567939706794,-34962.241049080025,-21121.929123631613,-30723.299768364403
14761.002631306963,5027.443769865486,-23530.195478224217,-31524.81097278726,-34895.968126770036,-34914.52007466794,-21137.173013350133,-30586.216519620004
14740.260212452438,5051.248377710388,-23502.993405222107,-31497.43008582951,-34928.28874925241,-34909.62504263223,-21174.23220565703,-30620.5264473589
14735.007552505442,5018.748941272372,-23499.953567976187,-31515.0879639492,-34854.572696038806,-34947.287732039425,-21175.796827768903,-30762.974114772573
14749.066799767828,4987.70236822395,-23532.497707903112,-31551.320141711254,-34830.678681216086,-34976.76968297597,-21164.598603796792,-30762.683542094655
14755.817026593331,5015.686752281994,-23540.365521951382,-31540.703063094985,-34894.89524303618,-34939.06229007987,-21158.317763604853,-30624.281540427393
14735.141662972173,5042.508845628363,-23514.41514663877,-31510.28233889131,-34936.357729000774,-34916.442324691096,-21177.361449880773,-30616.525485101403
14717.372026130204,5006.254316121855,-23511.397661137304,-31525.883856521115,-34883.54055685289,-34963.068063624865,-21189.587854097826,-30761.051864749417
14738.561479873835,4974.783059928783,-23529.7037398462,-31553.62237139015,-34811.47853272898,-34984.749255746516,-21142.157452363666,-30776.98865854605
14755.481750426503,5000.50991779684,-23541.103129518408,-31544.61461837466,-34862.28404787589,-34947.891229139714,-21129.931048146613,-30634.54099113238
14745.177596232606,5044.520502629341,-23515.309216416983,-31503.465056832443,-34929.495743453,-34906.36168794175,-21154.33915309181,-30591.24566212245
14718.891944753164,5016.603173804662,-23509.22954192514,-31513.165713926046,-34884.25581267546,-34948.83000240684,-21173.941632979113,-30726.496067821514
14725.172784945105,4968.546923225752,-23536.901001560807,-31554.91877256856,-34820.17336132209,-34997.892081486236,-21163.056333429377,-30798.602795434334
14751.436084680092,4991.5245165258075,-23554.625934913867,-31556.416339447063,-34867.87198398972,-34976.23324110905,-21171.482941089027,-30692.096733104794
14739.656715352145,5034.864549024648,-23536.096338760417,-31521.748783796884,-34939.08464182432,-34932.13324929872,-21184.692822062116,-30610.24464490946
14717.304970896837,5029.008391977357,-23517.07500422895,-31512.696327292484,-34902.56189138435,-34942.5491622149,-21173.338135878817,-30702.400887298692
14726.29037216787,4980.706272209439,-23540.499632418112,-31556.036359791324,-34835.88663767417,-34989.778398248964,-21163.74923750749,-30795.406495977226
14743.635325865189,4975.632426218084,-23562.739618151143,-31570.52029019836,-34858.59601004076,-34979.92127894417,-21159.86003397227,-30702.51264602097
14732.839433293277,5020.760598273349,-23540.879612073855,-31526.599112343683,-34935.307197011374,-34925.00304281748,-21173.494598090005,-30590.463351066515
14716.522659840903,5033.299926912776,-23503.17221917775,-31496.223091628923,-34911.122609510734,-34922.454943949575,-21178.747258037005,-30668.001552581973
14726.29037216787,4996.151327628056,-23510.145963447805,-31524.028661731325,-34820.6203962112,-34962.241049080025,-21153.735655991513,-30777.94978355763
14759.594471406279,4994.631409005095,-23531.93891429173,-31539.51842063885,-34819.70397468853,-34957.81540367787,-21131.27215281393,-30703.004384398984
14765.674145898121,5041.905348528069,-23517.87966702934,-31505.3873068556,-34893.934118024605,-34903.21009197355,-21140.503423273974,-30568.737455455957
14738.047389751362,5050.086086998712,-23496.064364440965,-31488.95877468095,-34907.25575771997,-34909.0886007653,-21159.994144439002,-30620.951130503552
14728.950229758053,5006.008446932847,-23506.45792561268,-31519.37949888462,-34839.75348946494,-34965.54910725941,-21157.84837697129,-30761.633010105255
14748.10567475625,4987.635312990584,-23538.84560332842,-31549.75551959938,-34816.12769557568,-34982.13410164524,-21141.106920374266,-30726.94310271062
14760.980279562507,5030.237737922399,-23529.43551891274,-31520.899417507582,-34883.98759174199,-34925.9418160846,-21146.739559977003,-30584.80835971932
14739.880232796697,5051.561302132762,-23502.009928466076,-31496.044277673278,-34917.20228400258,-34912.97780430053,-21170.253595143986,-30601.371002360705
14723.943439000064,5009.338856856687,-23508.246065169107,-31525.168600698544,-34853.946847194056,-34966.085549126336,-21174.500426590494,-30750.27832392196
14744.551747387857,4980.773327442805,-23537.325684705458,-31556.505746424886,-34820.46393400001,-34982.78230223445,-21156.99901068199,-30754.234582690548
14762.96958481903,5019.173624417022,-23538.756196350598,-31531.71766182395,-34882.02063822992,-34924.95833932857,-21152.28279260192,-30608.747078030956
14742.405979920148,5051.069563754745,-23514.99629199461,-31495.261966617345,-34927.30527249638,-34906.451094919576,-21172.37701086724,-30587.57997603178
14725.776282045399,5021.721723284927,-23509.386004136326,-31504.3367748662,-34869.0789781903,-34950.551086729894,-21176.690897547116,-30727.077213177352
14745.19994797706,4986.294208323266,-23535.582248637947,-31538.847868305194,-34814.384259508166,-34987.4091133367,-21155.456740314574,-30767.310353196903
14764.35539297526,5008.891821967581,-23551.027304056563,-31531.47179263494,-34883.83112953081,-34955.26730480997,-21165.42561834164,-30631.59056086428
14755.414695193136,5054.422325423041,-23518.840792040923,-31487.550614780263,-34921.06913579335,-34907.12164725323,-21167.191406153608,-30560.24379256294
14732.951192015553,5034.216348435444,-23501.94287323271,-31490.210472370443,-34866.19560315557,-34934.413127233165,-21156.79784498189,-30684.385381267715
14742.24951770896,4988.283513579788,-23528.98848402363,-31536.25506594838,-34808.84102688325,-34990.40424709371,-21150.24878385649,-30761.878879294265
14762.723715630022,4997.246563106366,-23550.51321393409,-31549.286132965823,-34851.778727981895,-34966.13025261524,-21149.0417896559,-30652.511793674446
14760.935576073596,5046.196883463488,-23523.288789187525,-31513.076306948224,-34925.13715328421,-34914.92240606814,-21168.264289887466,-30566.05524612132
14743.009477020441,5041.391258405597,-23497.293710386006,-31504.18031265501,-34896.05753374786,-34939.1964005466,-21177.652022558694,-30675.131759063217
14744.216471221027,4991.569220014718,-23519.109012974386,-31541.23950496191,-34818.1170008322,-34986.64915402522,-21165.582080552827,-30774.23939397805
14763.908358086153,4990.161060114034,-23544.94762956472,-31549.15202249909,-34838.72530922,-34969.61712475027,-21156.484920559516,-30680.339715521302
14765.472980198025,5039.6031188491725,-23527.08858574493,-31507.33190862321,-34910.787333343906,-34922.186723016115,-21159.23418512752,-30568.67040022259
14747.613936378233,5051.293081199298,-23493.113934172863,-31477.67114373102,-34894.40350465816,-34910.854388577274,-21166.61026079777,-30629.02011025192
14747.368067189225,5007.70717951145,-23500.490009843114,-31506.90722547856,-34816.0159368534,-34958.70947345608,-21155.52379554794,-30742.879896507253
14764.131875530706,4987.389443801576,-23530.553106135503,-31537.506763637874,-34820.57569272228,-34966.66669448217,-21147.454815799574,-30689.12395109224
14763.796599363875,5018.8159965057375,-23529.27905670155,-31523.33575765321,-34900.95256578357,-34924.46660095055,-21158.295411860396,-30566.323467054783
14732.906488526642,5026.102665198167,-23508.581341335936,-31507.935405723503,-34911.63669963321,-34926.746478885,-21176.556787080382,-30613.440944366568
14719.450738364547,4980.907437909536,-23518.28199842954,-31537.015025259858,-34840.35698656523,-34984.99512493552,-21175.170978924154,-30757.699103081122
14742.87536655371,4959.673280676995,-23546.64636214332,-31563.859470350682,-34824.91193114661,-35000.060200698405,-21157.84837697129,-30735.23559990354
14752.307802713849,4997.5147840398295,-23545.819347598477,-31542.58060962923,-34900.505530894465,-34954.48499375403,-21160.776455494935,-30599.71697327101
14731.699494326056,5028.203729176967,-23514.03516698303,-31508.695365034982,-34928.735784141514,-34933.31789175486,-21173.09226668981,-30608.121229186207
14712.611104561223,4990.004597902846,-23518.997254252106,-31535.539810125807,-34862.50756532044,-34977.17201437617,-21180.088362704322,-30762.527079883468
14741.19898571956,4970.156248826534,-23539.829080084455,-31563.0995110392,-34813.73605891896,-34998.74144777554,-21149.019437911444,-30769.053789264417
14761.06968654033,5005.650819021562,-23545.193498753728,-31548.861449821172,-34878.422007372625,-34953.859144909286,-21140.1904988516,-30627.388432906682
14741.713075842034,5039.558415360262,-23523.71347233218,-31515.959681982957,-34937.899999368194,-34922.186723016115,-21160.217661883555,-30606.33308962978
14728.212622191028,5017.497243582874,-23509.83303902543,-31518.552484339772,-34872.543498580875,-34953.859144909286,-21146.001952409977,-30734.475640592056
14746.071666010817,4983.455536777441,-23529.32376019046,-31548.548525398797,-34805.018878581395,-34980.92710744466,-21111.021472337423,-30767.533870641455
14760.287375484393,5002.61098177564,-23546.735769121144,-31549.800223088292,-34862.46286183153,-34953.25564780899,-21109.613312436737,-30642.945247047574
14750.720828857522,5045.548682874284,-23524.339321176925,-31518.083097706214,-34931.686214409616,-34916.77760085793,-21134.088472615298,-30585.165987630608
14728.257325679939,5028.024915221324,-23509.6989285587,-31521.212341929957,-34891.43072264561,-34933.31789175486,-21144.370275064743,-30715.163733382673
14737.063912995329,4981.220362331911,-23534.688178859735,-31566.564031429774,-34820.50863748892,-34992.68412502815,-21115.84944913977,-30790.95849883062
14760.510892928945,4993.916153182525,-23549.93206857825,-31570.877918109647,-34858.79717574086,-34963.291581069425,-21106.79699263537,-30678.708038176068
14756.845206838276,5046.107476485668,-23523.780527565545,-31527.269664677344,-34932.89320861021,-34901.824283817325,-21129.573420235327,-30584.875414952687
14737.935631029086,5047.537988130807,-23496.444344096704,-31514.015080215348,-34900.39377217219,-34916.867007835746,-21135.04959762688,-30680.272660287937
14734.314648427326,4998.051225906757,-23519.8019170525,-31556.304580724787,-34838.74766096445,-34984.950421446614,-21113.99425434998,-30788.27628949598
14753.470093425525,4989.982246158391,-23546.42284469877,-31574.767121644873,-34857.94780945156,-34968.43248229414,-21101.14200128818,-30703.943157666108
14764.735372631,5045.503979385374,-23520.78539380853,-31532.589379857705,-34912.106086266765,-34898.73974308249,-21109.32273975882,-30580.896804439642
14740.550785130357,5053.260034711366,-23498.701870286688,-31517.412545372554,-34910.56381589935,-34899.63381286071,-21141.33043781882,-30658.34559897728
14734.068779238318,5006.120205655123,-23507.754326791088,-31549.688464366016,-34825.85070441374,-34954.30617979839,-21130.981580136013,-30788.455103451623
14759.326250472815,4994.564353771729,-23528.94378053472,-31569.425054720054,-34800.90615760162,-34963.09041536933,-21090.144943016167,-30725.8031637434
14769.853922111264,5040.206615949466,-23519.913675774776,-31540.457193905975,-34886.04395223188,-34902.673650106626,-21102.79603037787,-30594.53136855738
14746.406942177648,5062.737174360415,-23490.878759727333,-31513.031603459312,-34901.198434972575,-34895.00700175846,-21122.376158520718,-30627.947226518063
14737.354485673248,5024.1357116861,-23499.327719131437,-31544.636970119118,-34834.83610568477,-34955.937857143625,-21122.89024864319,-30764.62814386227
14756.353468460258,4996.5760107727065,-23533.972923037163,-31581.271479281364,-34821.35800377822,-34969.505366027995,-21118.531658474407,-30752.625257089767
14766.724677887521,5032.9646507459465,-23533.414129425782,-31562.496013938908,-34894.87289129173,-34923.34901372779,-21123.963132377045,-30610.378755376194
14754.945308559574,5069.2415319969095,-23495.192646407206,-31519.088926206703,-34926.992348074,-34889.6872865781,-21138.13413836171,-30602.91327272812
14733.130005971196,5026.70616229846,-23501.719355788155,-31551.2977899668,-34870.66595204663,-34961.72695895755,-21161.402304339685,-30764.762254328998
14746.451645666559,4990.205763602944,-23535.291675960027,-31594.01197362089,-34830.522219004895,-34997.98148846406,-21148.930030933625,-30797.32874600038
14758.20866325005,5014.166833659034,-23539.918487062274,-31579.99742984741,-34876.29859164936,-34944.94079887161,-21109.92623685911,-30641.045348768876
14744.685857854589,5045.883959041114,-23514.61631233887,-31544.949894541493,-34929.33928124181,-34914.698888623585,-21135.876612171724,-30612.569226332813
14731.833604792788,5030.125979200123,-23503.663957555767,-31550.2472579774,-34880.590126584786,-34959.26826706747,-21161.603470039783,-30741.22586741756
14746.96573578903,4995.905458439048,-23525.680425844246,-31578.58926994673,-34819.79338166635,-34963.716264214076,-21131.09333885829,-30779.62616439178
14769.943329089087,5015.910269726547,-23533.28001895905,-31571.302601254298,-34862.261696131434,-34933.13907779921,-21102.818382122325,-30649.203735495063
14763.617785408234,5060.9043313150805,-23506.703794801688,-31531.740013568404,-34918.49868518099,-34895.834016303306,-21122.80084166537,-30578.39340906065
14738.002686262453,5039.401953149075,-23492.532788817025,-31534.221057202943,-34879.07020796183,-34922.05261254938,-21136.301295316374,-30698.087000618816
14742.674200853611,4992.552696770751,-23518.170239707262,-31577.449330979507,-34811.299718773334,-34983.09522665683,-21128.99227487949,-30796.121751799794
14767.976375577018,5006.65664752205,-23541.013722540585,-31582.701990926504,-34859.825355985806,-34966.152604359704,-21130.378083035717,-30690.82268367084
14761.427314451614,5051.248377710388,-23517.365576906872,-31537.52911538233,-34932.40147023219,-34903.09833325128,-21134.55785924886,-30571.129092112675
14741.690724097578,5053.170627733544,-23485.64845152479,-31514.730336037916,-34904.26062396295,-34908.261586220455,-21144.012647153457,-30660.15609027816
14742.182462475594,5002.253353864355,-23506.256759912583,-31558.070368536755,-34816.0159368534,-34982.42467432316,-21128.746405690483,-30779.961440558607
14762.343735974282,4990.719853725416,-23533.727053848157,-31575.325915256253,-34827.437678270064,-34968.521889271964,-21105.45588796805,-30702.400887298692
14759.39330570618,5032.763485045849,-23522.908809531786,-31539.943103783502,-34916.06234503536,-34910.42970543262,-21122.554972476362,-30586.730609742477
14735.901622283653,5043.782895062315,-23494.119762673352,-31519.223036673433,-34897.912728537645,-34919.728031126026,-21125.75127193347,-30646.00743603795
14737.466244395524,5006.142557399578,-23503.529847089034,-31545.173411986045,-34822.699108445544,-34971.91935442917,-21120.476260242016,-30769.657286364712
14754.855901581754,4982.561466999229,-23543.159490008296,-31574.945935600514,-34829.58344573778,-34982.53643304544,-21128.344074290286,-30721.533980552435
14761.15909351815,5026.61675532064,-23532.832984069944,-31538.780813071826,-34900.70669659456,-34917.76107761396,-21121.996178864978,-30576.180586359573
14744.350581687759,5052.812999822259,-23492.331623116926,-31499.531149808307,-34907.971013542534,-34900.10319949427,-21126.75710043396,-30613.083316455286
14732.05712223734,5012.46810108043,-23498.254835397584,-31527.292016421798,-34833.71851846201,-34969.72888347255,-21138.178841850622,-30778.03919053545
14759.326250472815,4995.570182272218,-23525.009873510586,-31552.370673700654,-34810.807980395315,-34973.86395619678,-21114.396585750175,-30753.787547801443
14774.25721576896,5034.484569368908,-23524.115803732373,-31529.974225756436,-34883.00411498596,-34911.72610661103,-21129.528716746416,-30588.317583598804
14757.605166149757,5070.33676747522,-23488.151846903784,-31491.41746657103,-34926.947644585096,-34889.530824366906,-21148.013609410955,-30591.513883055915
14735.096959483262,5027.242604165388,-23490.431724838225,-31517.434897117007,-34846.07903314579,-34959.55883974538,-21132.903830159168,-30744.556277341402
14751.123160257717,4989.043472891268,-23523.914638032275,-31558.58445865923,-34801.375544235176,-35003.65883155571,-21127.248838811975,-30770.886632309754
14770.390363978191,5021.0511709512675,-23526.70860608919,-31536.076251992734,-34865.23447814399,-34929.89807485319,-21122.152641076165,-30610.736383287476
14748.865634067732,5054.601139378684,-23511.218847181663,-31505.99080395589,-34937.25179877899,-34910.67557462163,-21160.88821421721,-30585.657726008623
14725.016322733918,5029.6789443110165,-23502.233445910628,-31513.85861800416,-34878.44435911708,-34942.05742383688,-21161.558766550872,-30719.477620062546
14753.246575980971,5003.1474236425665,-23517.209114695685,-31539.00433051638,-34807.90225361613,-34972.232278851545,-21130.489841757997,-30771.04309452094
14772.625538423723,5021.744075029383,-23535.962228293687,-31540.837173561715,-34862.060530431336,-34951.78043267494,-21144.772606464936,-30667.241593270493
14757.985145805496,5065.4864389284185,-23509.341300647415,-31494.300841605767,-34934.56958944435,-34896.303402936865,-21165.962060208567,-30580.62858350618
14739.522604885413,5051.628357366128,-23485.17906489123,-31491.126893893113,-34887.630926088204,-34933.34024349931,-21155.412036825663,-30687.06759060235
14745.691686355078,5003.974438187413,-23495.50557082958,-31526.688519321506,-34784.27645972687,-34976.12148238677,-21108.294559513877,-30774.015876533496
14764.40009646417,5003.169775387022,-23522.7523473206,-31537.57381887124,-34824.48724800196,-34952.518040241965,-21112.161411304645,-30674.684724174112
14753.559500403346,5038.887863026603,-23518.416108896272,-31510.930539480516,-34928.93694984161,-34924.22073176155,-21153.690952502606,-30584.048400407843
14739.164976974127,5047.1133049861555,-23489.4929515711,-31487.595318269174,-34918.275167736436,-34922.320833482845,-21170.745333522,-30681.54670972189
14753.738314358989,5017.407836605053,-23488.241253881606,-31509.85765574666,-34812.75258216293,-34958.329493800346,-21149.242955356,-30788.790379618455
14765.182407520106,4997.179507873,-23527.08858574493,-31539.00433051638,-34834.456126029036,-34958.50830775598,-21140.36931280724,-30713.88968394872
14768.266948254937,5043.537025873306,-23513.521076860558,-31500.246405630878,-34917.38109795822,-34900.68434485011,-21145.51021403196,-30580.785045717366
14744.507043898946,5052.52242714434,-23490.5434835605,-31487.52826303581,-34920.06330729286,-34913.98363280101,-21165.403266597186,-30651.036578540396
14736.572174617313,5007.5507173002625,-23497.293710386006,-31540.72541483944,-34841.94396042156,-34962.173993846656,-21161.670525273148,-30790.91379534171
14769.004555821963,4996.218382861422,-23521.03126299754,-31574.49890071141,-34826.051870113835,-34960.430557779146,-21143.677370986625,-30736.979035971053
14789.724622932032,5046.822732308237,-23508.42487912475,-31544.10052825219,-34891.22955694551,-34895.85636804776,-21135.22841158252,-30583.62371726319
14757.135779516195,5063.519485416351,-23488.68828877071,-31515.89262674959,-34924.08662129482,-34893.55413836886,-21162.497539817996,-30621.934607259587
14731.833604792788,5015.351476115165,-23500.17708542074,-31537.149135726588,-34849.32003609181,-34964.87855492575,-21156.75314149298,-30777.078065523874
14764.5342069309,4998.118281140123,-23528.18382122324,-31551.744824855905,-34828.10823060373,-34986.269174369474,-21158.04954267139,-30769.545527642433
14762.857826096753,5015.642048793084,-23536.588077138436,-31542.446499162495,-34901.33254543931,-34940.58220870283,-21152.08162690182,-30606.28838614087
14752.419561436125,5061.194903993,-23492.80100975049,-31502.32511786522,-34922.92433058314,-34897.95743202656,-21142.403321552672,-30582.014391662407
14747.144549744673,5041.748886316882,-23476.685401998213,-31520.60884482966,-34844.648521500654,-34937.02828133444,-21125.281885299908,-30716.214265372073
14770.6362331672,5007.327199855709,-23498.41129760877,-31558.651513892593,-34784.11999751568,-34961.65990372418,-21093.631815151195,-30726.6525300327
14779.487523971502,5028.136673943601,-23511.665882070767,-31553.845888834705,-34856.07026291732,-34924.846580606296,-21108.786297891893,-30595.157217402128
14759.259195239449,5065.419383695053,-23488.50947481507,-31513.635100559608,-34923.8407521058,-34885.66397257614,-21139.56465000685,-30558.05332160632
14733.733503071488,5036.697392069983,-23484.620271279844,-31522.86637101965,-34878.15378643916,-34933.496705710495,-21153.66860075815,-30700.679802975632
14742.562442131335,4986.5400775122735,-23512.202323937694,-31560.596115660206,-34810.65151818413,-34980.614183022284,-21135.340170304797,-30769.679638109166
14760.600299906768,5000.487566052386,-23526.529792133548,-31559.210307503978,-34845.22966685649,-34952.58509547533,-21099.398565220665,-30638.40784292315
14744.931727043597,5042.307679928265,-23508.42487912475,-31524.229827431423,-34918.43162994762,-34907.52397865343,-21116.832925895804,-30560.46731000749
14731.207755948039,5046.532159630318,-23482.78742823451,-31510.349394124678,-34870.66595204663,-34925.0924497953,-21126.690045200594,-30667.17453803713
14747.278660211405,5006.254316121855,-23497.763097019568,-31542.088871251213,-34783.471796926475,-34962.01753163547,-21099.778544876404,-30757.721454825576
14769.898625600175,5008.84711847867,-23520.204248452694,-31549.509650410375,-34813.37843100768,-34944.11378432677,-21094.36942271822,-30661.273677500925
14758.454532439058,5051.896578299592,-23507.329643646437,-31516.876103505627,-34896.795141314884,-34899.879682049715,-21111.446155482074,-30555.885202394154
14725.5751163453,5041.011278749857,-23489.26943412655,-31508.09186793469,-34885.0828272203,-34918.118705525245,-21131.27215281393,-30647.616761638736
14733.666447838123,5000.711083496939,-23495.952605718685,-31530.84594379019,-34796.50286394392,-34964.14094735873,-21110.820306637324,-30761.90123103872
14772.089096556796,5007.930696956003,-23505.340338389917,-31526.37559489913,-34789.12678827367,-34935.55306620039,-21084.557006902338,-30680.607936454766
14769.25042501097,5049.817866065248,-23495.68438478522,-31493.004440427358,-34872.8787747477,-34887.76503655494,-21098.124515786712,-30555.32640878277
14733.889965282675,5051.851874810681,-23478.115913643353,-31479.36987630962,-34884.94871675357,-34898.65033610467,-21124.857202155257,-30624.7285753165
14721.48474710998,4998.095929395668,-23493.069230683952,-31515.758516282862,-34813.84781764124,-34951.98159837504,-21128.344074290286,-30773.881766066763
14741.44485490857,4975.565370984718,-23520.673635086256,-31542.893534051604,-34798.715686644995,-34968.11955787177,-21114.374234005718,-30737.582533071345
14754.118294014728,5023.8674907526365,-23514.41514663877,-31512.316347636744,-34875.09159744878,-34909.312118209855,-21120.923295131124,-30591.692697011556
14736.169843217116,5055.271691712343,-23484.41910557975,-31479.861614687637,-34904.215920474046,-34886.51333886544,-21140.414016296152,-30610.19994142055
14734.135834471685,5023.956897730458,-23478.69705899919,-31497.43008582951,-34822.922625890096,-34936.4471359786,-21129.975751635524,-30749.048977976916
14751.726657358011,4990.898667681059,-23513.498725116104,-31538.0432055048,-34794.33474473176,-34966.77845320445,-21110.529733959407,-30743.84102151883
14767.037602309896,5032.696429812483,-23515.46567862817,-31519.938292496005,-34868.497832834466,-34916.934063069115,-21120.1856875641,-30604.09791518425
14748.239785222982,5062.066622026757,-23483.41327707926,-31483.16967286702,-34909.37917344322,-34887.496815621475,-21141.531603518917,-30583.377848074182
14741.511910141935,5036.965613003446,-23470.896300184286,-31489.31640259223,-34835.618416740705,-34923.97486257253,-21131.026283624924,-30711.207474614082
14761.15909351815,5001.962781186436,-23494.231521395628,-31521.592321585696,-34778.42030267958,-34958.62006647827,-21105.053556567855,-30735.16854467017
14782.54971296188,5030.841235022693,-23501.093506943405,-31505.767286511338,-34840.84872494325,-34906.40639143067,-21103.42187922262,-30596.967708703007
14776.15711404766,5078.5175059458625,-23464.01196289205,-31457.93455337698,-34892.50360637946,-34860.093576919266,-21117.79405090738,-30536.03685331784
14759.974451062018,5057.842142324704,-23446.935230128198,-31461.242611556365,-34840.75931796543,-34898.42681866012,-21114.575399705816,-30657.652694899167
14778.012308837451,5014.703275525961,-23471.03041065102,-31502.392173098586,-34772.18416597655,-34953.47916525354,-21098.146867531166,-30730.87700973475
14799.291169558905,5031.467083867441,-23493.940948717707,-31504.873216733125,-34818.9663671215,-34924.33249048382,-21103.690100156084,-30615.653767067644
14780.761573405454,5073.331901232231,-23475.232538608616,-31467.054065114746,-34903.791237329395,-34871.783539269396,-21136.90479241667,-30540.66366442009
14762.29903248537,5071.901389587091,-23443.157785315252,-31452.458375985432,-34857.56782979582,-34887.42976038811,-21131.540373747393,-30645.15806974865
14767.864616854742,5023.196938418977,-23466.001268148575,-31491.41746657103,-34774.7099131,-34947.44419425061,-21101.52198094392,-30736.28613189294
14791.401003766181,5026.437941364997,-23487.68246027022,-31501.386344598097,-34802.426076224576,-34933.072022565844,-21094.771754118414,-30648.041444783386
14792.183314822116,5075.47766869994,-23471.052762395473,-31465.780015680793,-34889.77669355592,-34885.060475475846,-21116.631760195705,-30544.217591788485
14763.506026685958,5069.2415319969095,-23459.36280004535,-31460.84028015617,-34882.3335626523,-34903.70183035157,-21142.38096980822,-30636.664406855634
14762.790770863388,5026.70616229846,-23468.527015272026,-31494.61376602814,-34794.60296566522,-34961.123461857256,-21112.049652582366,-30752.111166967294
14794.798468923387,5032.6740780680275,-23483.525035801536,-31504.80616149976,-34795.720552887986,-34937.87764762374,-21108.51807695843,-30682.21726205555
14794.30673054537,5076.215276266966,-23481.848654967387,-31483.03556240029,-34881.81947252983,-34891.87775753472,-21150.67346700114,-30568.33512405576
14758.767456861433,5075.9917588224125,-23459.87689016782,-31469.177480838,-34871.87294624722,-34892.123626723725,-21127.159431834156,-30601.05807793833
14761.516721429434,5042.642956095095,-23464.794273947988,-31494.591414283685,-34796.16758777709,-34941.58803720332,-21117.79405090738,-30738.297788893917
14785.813067652354,5022.861662252148,-23500.93704473222,-31530.398908901087,-34802.24726226893,-34966.845508437815,-21137.50828951696,-30726.138439910228
14786.327157774826,5054.489380656407,-23496.779620263533,-31509.410620857554,-34858.86423097423,-34909.446228676585,-21116.162373562143,-30575.040647392354
14756.532282415901,5077.198753022999,-23473.846730452387,-31481.537995521787,-34893.12945522421,-34882.42296963012,-21128.522888245927,-30584.249566107937
14754.833549837298,5053.99764227839,-23464.54840475898,-31495.32902185071,-34814.719535674994,-34924.93598758412,-21114.754213661457,-30717.197742128104
14772.670241912634,5019.777121517315,-23498.634815053323,-31535.159830470067,-34784.76819810488,-34955.33436004333,-21116.609408451248,-30734.341530125326
14786.72948917502,5052.611834122162,-23503.84277151141,-31520.05005121828,-34847.39778606866,-34911.65905137766,-21113.323702016318,-30594.86664472421
14784.516666473946,5103.193831824521,-23465.822454192934,-31471.569117494717,-34887.42976038811,-34870.82241425782,-21122.04088235389,-30558.27683905087
14757.247538238471,5059.160895247566,-23468.92934667222,-31492.66916426053,-34835.23843708497,-34921.06913579335,-21129.2381440685,-30697.572910496347
14768.35635523276,5018.100740683168,-23499.61829180936,-31534.15400196958,-34782.93535505955,-34956.362540288275,-21115.961207862045,-30749.451309377113
14777.07353557033,5036.451522880974,-23515.55508560599,-31532.47762113543,-34846.123736634705,-34928.892246352705,-21123.3372835323,-30625.421479394616
14764.198930764072,5082.093785058712,-23483.36857359035,-31487.774132224815,-34908.19453098709,-34872.8787747477,-21142.068045385844,-30563.596554231233
14753.358334703247,5071.677872142538,-23466.35889605986,-31487.170635124523,-34854.997379183456,-34908.73097285402,-21141.531603518917,-30680.45147424358
14763.617785408234,5028.136673943601,-23493.82918999543,-31528.1413827111,-34786.73515161695,-34961.21286883508,-21127.382949278708,-30755.910963524697
14791.6915764441,5048.566168375751,-23505.876780256844,-31526.15207745458,-34819.838085155265,-34929.942778342105,-21113.45781248305,-30636.843220811275
14784.650776940678,5085.7371194049265,-23486.251948625082,-31494.032620672304,-34902.62894661772,-34885.753379553964,-21134.155527848667,-30546.89980112312
14771.507951200958,5088.173459550555,-23453.081959853407,-31472.060855872736,-34863.75926300994,-34883.20528068606,-21126.779452178413,-30636.10561324425
14775.575968691823,5038.977270004424,-23478.02650666553,-31513.3892313706,-34777.92856430156,-34936.938874356616,-21112.31787351583,-30743.192820929627
14800.609922481766,5042.218272950444,-23504.848600011897,-31524.654510576074,-34805.018878581395,-34931.686214409616,-21110.261513025944,-30659.30672398886
14795.647835212689,5086.139450805122,-23489.35884110437,-31486.835358957695,-34888.01090574395,-34880.81364402934,-21122.063234098343,-30537.824992874266
14763.506026685958,5082.630226925638,-23473.444399052194,-31476.866480930625,-34881.841824274285,-34895.92342328113,-21139.09526337329,-30612.658633310635
14772.06674481234,5045.57103461874,-23481.13339914482,-31507.063687689748,-34791.876052841675,-34949.00881636248,-21123.22552481002,-30733.84979174731
14798.620617225244,5040.519540371841,-23503.395736622304,-31524.453344875976,-34787.942145817535,-34937.58707494582,-21098.102164042255,-30671.488424717
14806.17550685114,5090.408633996086,-23494.566797562456,-31494.636117772596,-34869.10132993476,-34887.76503655494,-21109.36744324773,-30540.12722255316
14776.894721614686,5101.472747501462,-23469.01875365004,-31472.686704717486,-34875.24805965997,-34889.731990067005,-21135.22841158252,-30593.05615342333
14768.311651743848,5057.216293479954,-23478.473541554635,-31504.269719632834,-34805.33180300377,-34948.07004309536,-21144.66084774266,-30745.025663974964
14785.053108340873,5025.208595419955,-23512.850524526897,-31538.33377818272,-34801.733172146465,-34973.08164514085,-21124.164298077143,-30712.570931025857
14797.50303000248,5064.882941828125,-23505.519152345558,-31508.67301329053,-34857.232553628986,-34892.77182731293,-21103.868914111725,-30552.174812814574
14781.968567606042,5101.696264946016,-23468.817587949943,-31467.679913959495,-34863.26752463192,-34867.290838633875,-21105.321777501318,-30555.304057038316
14774.413677980147,5071.186133764521,-23464.16842510324,-31483.594356011672,-34800.45912271251,-34925.58418817332,-21110.57443744832,-30701.775038453943
14796.720718946544,5037.144426959089,-23499.21596040916,-31522.933426253014,-34774.329933444256,-34955.53552574343,-21115.26830378393,-30727.211323644082
14799.514687003457,5054.422325423041,-23516.8514867844,-31522.017004730347,-34848.425966313596,-34924.690118395105,-21119.89511488618,-30590.73157199998
14781.946215861586,5089.425157240053,-23485.156713146775,-31481.56034726624,-34892.391847657185,-34880.38896088469,-21134.51315575995,-30553.314751781792
14767.506988943458,5067.229874995933,-23475.031372908517,-31496.42425732902,-34828.53291374838,-34932.602635932286,-21129.439309768597,-30676.62932594172
14777.699384415077,5024.985077975402,-23507.821382024453,-31539.697234594496,-34781.70600911451,-34962.241049080025,-21112.541390960385,-30737.31431213788
14804.186201594615,5051.024860265835,-23517.164411206773,-31529.460135633963,-34833.69616671755,-34914.3412607123,-21108.89805661417,-30609.86466525372
14794.01615786745,5095.840107898725,-23491.392849849803,-31490.277527603812,-34904.17121698514,-34881.75241729646,-21125.393644022184,-30542.89883886562
14770.97150933403,5079.970369335458,-23469.26462283905,-31488.601146769663,-34843.79915521135,-34913.71541186755,-21108.763946147435,-30655.953962320564
14775.486561714002,5027.935508243502,-23499.305367386984,-31534.2434089474,-34786.89161382814,-34962.218697335564,-21101.32081524382,-30753.541678612433
14807.538963262912,5047.8732642976365,-23513.498725116104,-31533.438746147007,-34819.07812584378,-34938.39173774621,-21102.30429199985,-30653.919953575132
14802.956855649574,5090.38628225163,-23494.164466162263,-31495.977222439913,-34894.58231861381,-34879.249021917465,-21104.874742612214,-30553.404158759615
14770.457419211558,5078.0481193123005,-23475.031372908517,-31492.870329960628,-34871.02357995792,-34906.09346700829,-21110.41797523713,-30650.58954365129
14764.02011680843,5027.264955909844,-23494.07505918444,-31536.23271420392,-34797.75456163342,-34976.836738209335,-21102.70662340005,-30773.814710833398
14790.797506665887,5030.99769723388,-23513.78929779402,-31546.022778275346,-34814.3172042748,-34949.76877567396,-21085.339317958274,-30696.276509317937
14789.679919443122,5073.689529143516,-23501.160562176774,-31510.75172552487,-34894.38115291371,-34880.27720216241,-21092.827152350805,-30570.883222923665
14767.328174987815,5083.412537981575,-23472.88560544081,-31497.3853823406,-34896.25869944796,-34892.57066161283,-21094.838809351782,-30627.857819540244
14762.857826096753,5040.228967693922,-23481.535730545012,-31529.61659784515,-34809.89155887265,-34945.85722039428,-21095.37525121871,-30761.789472316443
14792.317425288848,5029.455426866463,-23508.08960295792,-31551.588362644718,-34798.089837800246,-34939.10699356878,-21081.852445823246,-30714.671995004657
14806.197858595593,5080.439755969019,-23490.722297516146,-31516.27260640533,-34865.72621652201,-34879.316077150834,-21063.92634677009,-30573.140749113652
14781.275663527926,5096.421253254563,-23461.665029724245,-31491.395114826577,-34879.874870762214,-34871.69413229157,-21074.878701553193,-30595.984231946975
14780.381593749715,5065.039404039312,-23458.289916311493,-31508.449495845976,-34806.896425115636,-34920.55504567087,-21071.816512562815,-30726.965454455076
14801.012253881963,5042.195921205988,-23485.6931550137,-31543.67584510754,-34775.872203811676,-34935.86599062276,-21053.82335827629,-30724.909093965187
14807.114280118261,5069.532104674829,-23496.533751074523,-31536.500935137385,-34864.58627755479,-34902.76305708445,-21078.343221943764,-30605.707240785032
14790.842210154799,5100.131642834144,-23471.924480429232,-31506.28137663381,-34913.17897000063,-34878.01967597243,-21110.529733959407,-30611.161066432127
14775.598320436278,5063.184209249522,-23470.672782739734,-31526.733222810417,-34846.90604769064,-34929.786316130914,-21114.50834447245,-30751.46296637809
14803.158021349673,5038.552586859773,-23484.732030002124,-31551.38719694462,-34778.62146837967,-34944.18083956013,-21064.26162293692,-30742.075233706862
14825.375655338248,5076.416441967063,-23483.569739290448,-31534.444574647496,-34830.253998071435,-34908.619214131744,-21048.88362275167,-30604.232025650985
14809.64002724171,5112.53686100684,-23457.26173606655,-31499.598205041675,-34885.61926908723,-34877.2820684054,-21071.771809073904,-30565.496452509935
14782.616768195245,5081.020901324857,-23446.82347140592,-31502.593338798684,-34832.980910894985,-34877.70675155005,-21086.79218134787,-30691.046201115398
14791.423355510637,5040.027801993823,-23475.12077988634,-31544.10052825219,-34775.11224450019,-34931.21682777606,-21074.31990794181,-30754.99454200203
14819.072463401852,5067.676909885038,-23484.35205034638,-31538.0432055048,-34818.02759385438,-34911.05555427737,-21074.31990794181,-30640.039520268387
14813.395120310202,5115.710808719494,-23458.401675033772,-31495.75370499536,-34887.87679527722,-34864.18394615459,-21093.832980851294,-30565.652914721122
14796.251332312982,5105.093730103223,-23438.35216025736,-31490.635155515094,-34839.10528887573,-34873.728141037005,-21088.669727882116,-30674.707075918566
14793.12208808924,5048.722630586938,-23461.93325065771,-31532.544676368798,-34767.73616882994,-34926.098278295794,-21075.54925388685,-30766.259821207503
14806.533134762423,5044.296985184787,-23492.085753927917,-31548.883801565626,-34806.78466639336,-34920.39858345969,-21089.005004048944,-30676.741084663998
14811.07053888685,5096.577715465751,-23468.459960038657,-31504.157960910557,-34893.57649011332,-34862.48521357599,-21114.553047961363,-30575.755903214922
14784.69548042959,5088.642846184117,-23449.706846440655,-31497.161864896047,-34863.55809730984,-34885.95454525406,-21117.011739851445,-30663.486500202
14783.063803084351,5038.552586859773,-23467.230614093616,-31537.61852236015,-34775.5592793893,-34945.05255759389,-21082.813570834824,-30771.780702087966
14811.361111564769,5041.8829967836145,-23485.40258233578,-31546.268647464356,-34787.7633318619,-34925.85240910678,-21071.592995118262,-30690.77798018193
14818.960704679574,5093.58258170874,-23471.70096298468,-31511.75755402536,-34876.4327021161,-34876.47740560501,-21095.59876866326,-30570.927926412576
14802.733338205022,5106.7477591929155,-23442.621343448325,-31489.31640259223,-34872.45409160305,-34876.589164327284,-21110.12740255921,-30634.67510159911
14809.036530141419,5070.850857597692,-23444.767110916033,-31510.058821446757,-34792.88188134216,-34929.942778342105,-21090.815495349827,-30753.787547801443
14823.811033226375,5052.030688766324,-23483.659146268266,-31545.66515036406,-34788.567994662284,-34951.69102569712,-21082.947681301557,-30713.576759526346
14833.69050427562,5094.946038120513,-23474.02554440803,-31517.09962095018,-34856.78551873988,-34883.1829289416,-21092.625986650706,-30585.00952541942
14812.277533087437,5111.754549950904,-23448.343390028884,-31493.071495660723,-34880.88069926271,-34864.787443254885,-21113.100184571766,-30614.379717633692
14799.894666659196,5069.912084330569,-23449.148052829274,-31514.61857731564,-34805.018878581395,-34919.325699725836,-21104.159486789642,-30747.819632031875
14823.74397799301,5044.989889262902,-23476.12660838683,-31542.401795673588,-34771.91594504308,-34940.8951331252,-21081.763038845427,-30729.22298064506
14833.914021720175,5079.188058279522,-23485.134361402317,-31529.90717052307,-34853.43275707159,-34906.3393361973,-21103.31012050034,-30596.34185985826
14816.524364533945,5110.256983072399,-23454.60187847637,-31494.747876494872,-34894.80583605836,-34891.363667412246,-21112.42963223811,-30582.193205618052
14800.274646314938,5083.300779259298,-23444.72240742712,-31504.448533588475,-34821.581521222775,-34925.80770561787,-21096.045803552366,-30714.89551244921
14820.368864580258,5054.154104489578,-23468.035276894007,-31533.215228702455,-34777.660343368094,-34952.42863326414,-21081.18189348959,-30742.343454640326
14841.670077046167,5084.016035081868,-23473.243233352096,-31516.741993038893,-34827.95176839254,-34901.131379739214,-21082.947681301557,-30606.467200096515
14823.073425659351,5117.7895209538365,-23453.819567420433,-31482.633231000094,-34891.00603950096,-34871.560021824844,-21115.670635184128,-30570.279725823373
14801.526344004435,5096.778881165848,-23440.38616900279,-31486.388324068586,-34832.44446902806,-34919.37040321474,-21103.690100156084,-30693.728410450032
14811.875201687242,5059.607930136673,-23468.258794338562,-31522.53109485282,-34763.623447850165,-34955.53552574343,-21084.802876091348,-30753.027588489964
14837.333838621837,5083.703110659494,-23485.40258233578,-31518.12780119512,-34814.093686830245,-34912.26254847796,-21090.636681394182,-30630.137697474685
14833.22111764206,5130.150035637622,-23462.112064613353,-31480.442760043476,-34890.87192903423,-34872.834071258796,-21115.625931695216,-30549.537306968847
14799.380576536725,5107.328904548754,-23452.053779608465,-31488.109408391647,-34855.690283261574,-34909.312118209855,-21125.237181810997,-30667.84509037079
14794.150268334184,5057.082183013223,-23477.17714037623,-31530.801240301284,-34785.59521264973,-34954.95438038759,-21112.675501427115,-30760.783643815954
14818.714835490566,5064.324148216742,-23494.07505918444,-31535.651568848083,-34809.489227472455,-34929.87572310874,-21096.60459716375,-30651.997703551973
14822.22405937005,5109.474672016463,-23474.338468830403,-31498.167693396535,-34888.50264412197,-34884.65814407565,-21113.547219460874,-30550.14080406914
14804.655588228177,5111.531032506351,-23443.515413226538,-31477.04529488627,-34858.81952748531,-34886.021600487424,-21113.815440394337,-30623.096897971263
14807.561315007368,5072.013148309368,-23452.478462753115,-31503.15213241007,-34769.904288042104,-34930.12159229775,-21091.79897210586,-30732.50868707999
14829.644838529211,5065.978177306435,-23479.233500866118,-31519.62536807363,-34779.627296880164,-34929.67455740864,-21080.466637667017,-30656.289238487392
14838.518481077968,5115.174366852566,-23469.17521586123,-31484.71194323444,-34870.88946949118,-34876.030370715904,-21103.868914111725,-30528.437260203038
14816.814937211864,5122.550442522817,-23444.45418649366,-31465.645905214064,-34868.8778124902,-34868.74370202347,-21113.256646782953,-30583.19903411854
14808.276570829938,5078.5175059458625,-23449.349218529373,-31493.697344505472,-34778.66617186859,-34930.92625509814,-21091.575454661306,-30713.8002769709
14825.55446929389,5056.545741146296,-23480.865178211356,-31524.363937898153,-34779.001448035415,-34948.38296751773,-21075.392791675662,-30680.429122499125
14836.998562455006,5100.466919000974,-23473.55615777447,-31492.535053793796,-34845.65435000114,-34878.75728353945,-21091.84367559477,-30545.871620878177
14816.189088367117,5120.739951221937,-23453.327829042417,-31470.406826783044,-34874.778673026405,-34875.203356171056,-21121.526792231416,-30572.76076945791
14798.844134669798,5081.311474002776,-23455.183023832207,-31491.75274273786,-34810.3162420173,-34931.93208359863,-21119.492783485985,-30710.80514321389
14818.424262812647,5060.300834214787,-23475.523111286537,-31514.596225571186,-34761.07534898226,-34942.97384535955,-21092.536579672884,-30700.344526808803
14842.944126480119,5099.349331778209,-23473.399695563283,-31491.305707848755,-34833.673814973095,-34889.262603433446,-21091.329585472296,-30557.80745241731
14826.560297794378,5129.323021092775,-23448.07516909542,-31458.493346988365,-34870.42008285762,-34863.312228120834,-21108.965111847534,-30543.211763287996
14811.875201687242,5104.557288236295,-23435.87111662282,-31468.730445948895,-34797.57574767777,-34906.76401934195,-21099.733841387493,-30672.650715428677
14823.699274504099,5067.118116273656,-23466.336544315403,-31508.583606312706,-34754.459232623485,-34944.29259828241,-21091.575454661306,-30713.08502114833
14844.531100336446,5090.632151440639,-23479.367611332847,-31504.314423121745,-34823.43671601256,-34917.828132847324,-21103.913617600636,-30593.43613307907
14831.634143785734,5124.1597681236,-23460.100407612375,-31470.09390236067,-34892.86123429075,-34866.08384443329,-21125.840678911292,-30545.983379600453
14809.88589643072,5102.8138521687815,-23443.046026592976,-31472.642001228574,-34824.8225241688,-34902.114856495245,-21109.546257203372,-30653.45056694157
14814.177431366139,5065.933473817525,-23467.811759449454,-31510.639966802595,-34763.198764705514,-34954.1497175872,-21090.45786743854,-30718.292977606416
14834.115187420271,5083.926628104046,-23487.21307363666,-31514.082135448713,-34811.52323621789,-34917.71637412505,-21097.900998342157,-30610.28934839837
14835.590402554322,5130.127683893166,-23464.88368092581,-31477.872309431114,-34880.34425739578,-34873.57167882582,-21115.64828343967,-30532.058242804796
14810.042358641907,5119.354143065709,-23446.063512094443,-31471.74793145036,-34845.006149411936,-34900.10319949427,-21105.947626346067,-30626.91904627312
14809.349454563791,5068.012186051868,-23467.40942804926,-31510.461152846954,-34770.060750253295,-34953.9485518871,-21090.703736627547,-30721.377518341247
14839.725475278554,5080.752680391393,-23483.21211137916,-31514.640929060097,-34793.99946856493,-34931.753269642984,-21090.144943016167,-30631.25528469745
14833.914021720175,5122.371628567174,-23476.260718853562,-31489.36110608114,-34878.980800984005,-34895.78931281439,-21112.60844619375,-30528.0572805473
14803.448594027592,5113.922669163068,-23453.663105209245,-31478.31934432022,-34869.45895784604,-34892.14597846818,-21127.56176323435,-30605.707240785032
14802.129841104728,5070.783802364326,-23458.44637852268,-31508.449495845976,-34779.80611083581,-34945.34313027181,-21105.85821936825,-30716.46013456108
14832.483510075035,5067.498095929396,-23482.11687590085,-31524.43099313152,-34779.44848292452,-34940.15752555818,-21088.468562182017,-30650.030750039907
14845.045190458917,5118.281259331854,-23471.298631584483,-31493.406771827555,-34855.10913790573,-34885.842786531786,-21098.41508846463,-30520.971777554965
14818.088986645816,5128.339544336742,-23451.94202088619,-31474.474844273907,-34872.34233288078,-34876.946792238574,-21119.112803830245,-30572.358438057716
14799.224114325538,5082.071433314256,-23458.87106166733,-31504.828513244214,-34782.68948587054,-34937.274150523444,-21106.23819902399,-30704.658413488676
14817.999579667996,5064.011223794369,-23484.620271279844,-31529.05780423377,-34757.52142161386,-34945.92427562765,-21079.08082951079,-30666.012247325452
14827.767291994965,5097.047102099312,-23490.856407982876,-31509.835304002205,-34843.262713344426,-34894.649373847176,-21092.69304188407,-30534.204010272508
14811.02583539794,5117.968334909479,-23461.039180879496,-31479.794559454273,-34875.51628059343,-34874.24223115948,-21116.52000147343,-30548.285609279348
14801.749861448987,5085.670064171561,-23453.39488427578,-31497.094809662678,-34798.06748605579,-34928.53461844142,-21104.964149590036,-30678.439817242604
14813.93156217713,5050.309604443265,-23480.97693693363,-31529.68365307852,-34755.77798554635,-34942.90679012618,-21080.399582433653,-30685.614727212756
14837.289135132925,5088.866363628669,-23481.222806122638,-31508.494199334888,-34820.955672378026,-34894.068228491335,-21084.93698655808,-30548.084443579253
14826.426187327646,5124.271526845876,-23451.91966914173,-31470.384475038587,-34871.33650438029,-34863.04400718737,-21105.344129245776,-30521.61997814417
14799.738204448011,5090.453337484996,-23443.716578926633,-31483.147321122568,-34798.53687268935,-34909.13330425421,-21094.9282163296,-30654.791671608888
14808.567143507857,5051.449543410486,-23469.041105394495,-31519.848885518182,-34739.81884000526,-34949.90288614069,-21077.583262632284,-30698.6457942302
14833.131710664238,5078.182229779033,-23484.508512557568,-31516.451420360976,-34803.90129135863,-34915.48119967952,-21089.11676277122,-30577.14171137115
14823.296943103904,5112.335695306742,-23465.12955011482,-31486.209510112945,-34875.069245704326,-34879.539594595386,-21108.182800791597,-30523.162248511584
14802.308655060371,5097.0023986104015,-23444.565945215934,-31484.89075719008,-34818.854608399226,-34907.54633039788,-21103.75715538945,-30643.59344763678
14804.275608572438,5054.936415545513,-23467.632945493813,-31519.491257606896,-34755.442709379524,-34948.22650530654,-21083.64058537967,-30715.07432640485
14824.12395764875,5061.776049348838,-23493.158637661774,-31531.985882757413,-34799.85562561222,-34934.56958944435,-21091.016661049922,-30606.266034396416
14826.560297794378,5110.078169116756,-23472.952660674175,-31494.211434627945,-34872.31998113632,-34886.58039409881,-21123.76196667695,-30528.0572805473
14802.196896338093,5103.104424846701,-23449.84095690739,-31481.3815333106,-34843.77680346689,-34894.31409768035,-21133.17205109263,-30632.30581668685
14791.892742144197,5047.716802086449,-23472.773846718534,-31525.123897209633,-34766.64093335163,-34947.265380294964,-21098.638605909182,-30726.451364332603
14818.491318046013,5051.024860265835,-23496.13141967433,-31537.03737700431,-34798.447465711535,-34940.73867091402,-21106.84169612428,-30650.12015701773
14827.543774550411,5100.511622489885,-23475.50075954208,-31499.37468759712,-34867.00026595596,-34891.22955694551,-21118.84458289678,-30541.42362373157
14801.079309115328,5101.897430646113,-23449.818605162935,-31480.979201910402,-34847.84482095776,-34889.262603433446,-21104.673576912115,-30593.99492669045
14793.345605533792,5058.825619080737,-23459.429855278715,-31508.85182724617,-34767.73616882994,-34936.87181912325,-21082.254777223443,-30700.32217506435
14810.735262720022,5041.927700272525,-23496.08671618542,-31539.33960668321,-34788.232718495456,-34955.71433969907,-21096.761059374938,-30663.777072879922
14829.913059462675,5093.649636942106,-23482.56391078996,-31502.369821354132,-34861.70290252005,-34890.3354871673,-21107.55695194685,-30536.975626584965
14809.26004758597,5108.446491771519,-23452.701980197668,-31475.078341374203,-34866.21795490002,-34880.38896088469,-21111.736728159995,-30574.079522380773
14786.863599641752,5058.780915591827,-23463.095541369385,-31508.382440612608,-34788.52329117338,-34942.63856919272,-21105.65705366815,-30711.11806763626
14802.26395157146,5035.691563569494,-23493.337451617415,-31539.33960668321,-34772.51944214338,-34960.60937173478,-21097.968053575525,-30700.27747157544
14821.374693080747,5073.041328554312,-23490.878759727333,-31512.651623803573,-34840.04406214286,-34896.21399595904,-21098.683309398093,-30559.595591973735
14808.83536444132,5107.060683615289,-23462.26852682454,-31474.31838206272,-34874.57750732631,-34871.09063519128,-21118.79987940787,-30557.986266372955
14790.685747943611,5072.393127965108,-23462.670858224734,-31493.47382706092,-34805.08593381476,-34917.53756016941,-21122.66673119864,-30700.635099486724
14798.35239629178,5029.56718558874,-23495.058535940476,-31533.57285661374,-34768.45142465251,-34955.15554608769,-21107.534600202394,-30725.534942809936
14825.733283249532,5063.206560993977,-23495.617329551857,-31515.199722671478,-34822.140314834156,-34918.677499136626,-21092.782448861893,-30587.6693830096
14812.50105053199,5101.316285290276,-23466.895337926788,-31476.888832675082,-34862.17228915361,-34877.4832341055,-21103.064251311334,-30546.430414489558
14780.180428049616,5066.000529050891,-23466.91768967124,-31495.53018755081,-34812.81963739629,-34924.51130443947,-21114.41893749463,-30684.228919056528
14784.427259496124,5020.157101173056,-23499.640643553812,-31538.445536904997,-34769.54666013082,-34966.66669448217,-21106.327606001807,-30748.46783262108
14814.624466255245,5045.302813685276,-23510.41418438127,-31529.10250772268,-34826.185980580565,-34926.63472016272,-21107.89222811368,-30622.76162180443
14814.020969154952,5091.749738663404,-23480.865178211356,-31486.47773104641,-34888.81556854434,-34882.24415567448,-21123.538449232394,-30552.867716892688
14781.16390480565,5068.570979663251,-23471.432742051216,-31494.926690450513,-34843.82150695581,-34927.1935137741,-21121.66090269815,-30666.12400604773
14780.471000727535,5025.141540186589,-23494.142114417806,-31535.562161870264,-34776.81097707879,-34966.89021192673,-21094.45882969604,-30743.349283140815
14805.46025102857,5037.345592659187,-23508.581341335936,-31537.797336315794,-34789.6632301406,-34931.127420798235,-21089.206169749043,-30636.440889411082
14817.798413967897,5088.128756061645,-23484.530864302025,-31496.781885240303,-34863.42398684311,-34880.724237051516,-21107.89222811368,-30540.507202208904
14779.73339316051,5072.348424476198,-23474.7408002306,-31498.86059747465,-34854.1256611497,-34915.97293805754,-21129.618123724238,-30645.06866277083
14765.405924964658,5017.720761027427,-23498.701870286688,-31542.692368351505,-34781.16956724758,-34979.89892719971,-21121.21386780904,-30751.597076844824
14795.02198636794,5022.392275618587,-23513.923408260755,-31543.787603829816,-34783.49414867093,-34941.118650569755,-21091.441344194573,-30663.821776368834
14814.26683834396,5077.042290811813,-23493.940948717707,-31504.09090567719,-34856.04791117286,-34882.691190563586,-21099.42091696512,-30547.99503660143
14797.145402091195,5087.6146659391725,-23464.324887314426,-31480.979201910402,-34845.72140523451,-34889.64258308918,-21106.349957746264,-30606.310737885327
14778.615805937745,5037.3679444036425,-23482.49685555659,-31516.831400016716,-34781.95187830352,-34940.984540103025,-21103.488934455985,-30729.446498089612
14798.933541647619,5024.716857041938,-23512.448193126704,-31540.52424913934,-34779.627296880164,-34949.83583090733,-21105.2323705235,-30682.306669033373
14816.703178489588,5074.538895432817,-23500.42295460975,-31511.42227785853,-34857.90310596265,-34908.86508332075,-21116.050614839867,-30559.215612317996
14806.711948718066,5099.863421900681,-23463.341410558394,-31472.351428550654,-34858.75247225195,-34874.935135237596,-21105.2323705235,-30581.25443235093
14779.621634438234,5044.341688673698,-23482.675669512235,-31509.85765574666,-34794.49120694294,-34936.804763889886,-21106.774640890915,-30722.562160797377
14796.608960224266,5024.314525641743,-23510.905922759288,-31538.020853760347,-34776.65451486761,-34957.614237977774,-21100.65026291016,-30713.330890337336
14825.822690227353,5072.236665753921,-23503.216922666663,-31509.05299294627,-34841.027538898896,-34905.86994956374,-21109.009815336445,-30571.084388623764
14809.505916774979,5096.667122443571,-23474.718448486146,-31477.201757097457,-34872.85642300325,-34888.50264412197,-21129.975751635524,-30572.693714224544
14787.757669419965,5064.659424383572,-23468.191739105194,-31489.89754794807,-34798.425113967074,-34926.32179574035,-21116.408242751153,-30702.31148032087
14800.632274226222,5033.165816446044,-23497.98661446412,-31523.201647186477,-34769.12197698617,-34960.564668245876,-21107.55695194685,-30721.444573574612
14822.536983792423,5063.385374949619,-23502.233445910628,-31508.248330145878,-34829.628149226686,-34916.82230434684,-21099.197399520566,-30584.428380063582
14811.674035987144,5099.684607945038,-23470.941003673197,-31469.55746049374,-34865.52505082191,-34885.64162083169,-21083.931158057592,-30544.575219699767
14792.943274133597,5081.95967459198,-23459.720427956632,-31473.200794839955,-34800.74969539043,-34917.47050493604,-21084.065268524322,-30673.433026484614
14804.767346950453,5052.008337021868,-23478.808817721467,-31493.47382706092,-34744.4009476186,-34931.753269642984,-21067.860253794224,-30702.333832065327
14829.622486784756,5072.750755876393,-23494.03035569553,-31488.779960725304,-34801.53200644637,-34911.413182188655,-21074.722239342005,-30584.54013878586
14817.574896523345,5105.451358014508,-23479.300556099482,-31461.13085283409,-34883.1829289416,-34880.38896088469,-21112.22846653801,-30537.08738530724
14806.488431273512,5096.175384065555,-23456.345314543883,-31452.57013470771,-34840.91578017661,-34893.12945522421,-21114.731861917004,-30644.912200559644
14814.825631955342,5061.0831452707225,-23461.97795414662,-31476.553556508254,-34742.41164236208,-34930.12159229775,-21069.916614284113,-30702.847922187797
14826.739111750021,5059.518523158851,-23488.040088181508,-31486.85771070215,-34781.61660213669,-34916.35291771328,-21068.687268339072,-30604.67906054009
14822.179355881139,5103.909087647091,-23475.16548337525,-31452.681893429984,-34873.54932708137,-34874.95748698205,-21103.75715538945,-30523.676338634057
14801.258123070971,5105.741930692427,-23454.467768009636,-31441.550724691242,-34855.84674547276,-34898.58328087131,-21110.216809537033,-30608.903540242143
14801.012253881963,5058.892674314103,-23465.08484662591,-31472.731408206393,-34771.312447942786,-34946.795993661406,-21082.254777223443,-30710.425163558146
14814.289190088415,5046.4651043969525,-23493.27039638405,-31493.362068338643,-34774.21817472198,-34936.2459702785,-21075.325736442297,-30646.119194760227
14828.571954795356,5100.556325978795,-23471.83507345141,-31453.173631808,-34843.597989511254,-34874.5328038374,-21083.50647491294,-30522.33523396674
14809.26004758597,5109.228802827454,-23444.990628360585,-31434.2193525099,-34844.33559707828,-34878.354952139256,-21095.50936168544,-30577.879318938176
14788.584683964811,5048.722630586938,-23470.516320528546,-31481.51564377733,-34781.370732947675,-34944.471412238054,-21098.79506812037,-30719.499971807003
14808.7459574635,5030.371848389131,-23501.31702438796,-31509.72354527993,-34777.325067201265,-34944.87374363825,-21098.482143697995,-30685.972355124042
14829.957762951586,5085.491250215919,-23478.630003765822,-31468.775149437806,-34836.110155118724,-34879.69605680658,-21086.658070881138,-30533.08642304974
14808.991826652507,5104.512584747385,-23454.7359889431,-31445.015245081813,-34854.39388208317,-34876.946792238574,-21101.969015833023,-30564.088292609253
14787.44474499759,5055.875188812636,-23465.844805937388,-31479.056951887247,-34785.81873009428,-34943.3985285042,-21101.56668443283,-30714.26966360446
14808.723605719044,5033.635203079606,-23487.92832945923,-31503.19683589898,-34752.246409922416,-34948.71824368456,-21077.359745187732,-30680.16090156566
14819.653608757688,5062.200732493488,-23495.416163851758,-31491.484521804396,-34837.49596327495,-34908.99919378748,-21098.526847186906,-30548.37501625717
14806.868410929254,5094.990741609424,-23464.302535569972,-31457.196945809956,-34872.31998113632,-34870.5318415799,-21122.04088235389,-30549.269086035383
14794.440841012103,5069.532104674829,-23451.964372630642,-31468.23870757088,-34789.70793362951,-34912.2401967335,-21093.005966306446,-30669.677933416122
14807.6954254741,5032.7858367903045,-23477.244195609594,-31501.14047540909,-34735.951988214496,-34944.51611572696,-21059.299535667844,-30690.532110992925
14818.670132001655,5048.409706164563,-23497.874855741844,-31500.738144008894,-34809.86920712819,-34918.1410572697,-21080.73485860048,-30582.05909515132
14810.757614464477,5088.464032228474,-23471.142169373295,-31464.483614502387,-34859.31126586333,-34883.875833019716,-21092.044841294868,-30539.859001619698
14790.886913643708,5071.968444820457,-23462.715561713645,-31469.579812238197,-34810.98679435096,-34911.122609510734,-21090.59197790527,-30658.479709444015
14802.710986460566,5036.496226369885,-23485.60374803588,-31509.52237957983,-34745.585590074734,-34953.233296064536,-21070.2742421954,-30717.823590972854
14834.495167076013,5065.419383695053,-23487.481294570127,-31500.89460622008,-34781.527195158866,-34919.50451368147,-21051.58818383076,-30598.889958726166
14829.354265851292,5107.954753393502,-23467.230614093616,-31471.569117494717,-34852.91866694912,-34875.04689395987,-21067.45792239403,-30529.398385214616
14798.26298931396,5086.944113605513,-23455.16067208775,-31479.727504220904,-34818.22875955448,-34904.059458262855,-21077.292689954364,-30645.7839185934
14795.983111379519,5036.317412414242,-23480.06051541096,-31524.185123942512,-34748.26779940937,-34949.20998206258,-21049.844747763247,-30736.107317937294
14812.188126109617,5039.826636293726,-23509.40835588078,-31544.48050790793,-34792.88188134216,-34939.88930462472,-21057.153768200133,-30652.22122099653
14815.160908122172,5088.8440118842145,-23484.93319570222,-31502.19100739849,-34866.24030664448,-34877.03619921639,-21064.485140381472,-30546.8103941453
14781.454477483569,5076.550552433795,-23472.349163573883,-31502.682745776507,-34838.88177143118,-34889.86610053374,-21068.799027061348,-30636.17266847762
14777.475866970524,5033.031705979312,-23489.023564937543,-31536.61269385966,-34768.384369419146,-34941.409223247676,-21060.97591650199,-30753.18405070115
14808.097756874295,5036.831502536715,-23503.038108711018,-31543.653493363083,-34774.106415999704,-34922.164371271654,-21040.278201136374,-30676.472863730534
14822.089948903316,5086.430023483041,-23486.40841083627,-31508.784772012805,-34846.97310292401,-34868.631943301196,-21042.53572732636,-30549.112623824196
14801.079309115328,5098.00822711089,-23461.30740181296,-31493.47382706092,-34846.79428896836,-34872.45409160305,-21047.475462850984,-30597.370040103204
14783.309672273359,5042.844121795192,-23478.115913643353,-31532.030586246325,-34777.23566022344,-34929.98748183101,-21043.29568663784,-30729.46884983407
14810.332931319826,5033.366982146142,-23501.428783110237,-31551.141327755613,-34773.4582154105,-34935.329548755835,-21028.87881146417,-30690.46505575956
14824.213364626572,5075.969407077958,-23497.807800508475,-31525.302711165277,-34842.36864356621,-34887.45211213257,-21036.947791212537,-30558.52270823988
14807.896591174198,5097.449433499508,-23470.20339610617,-31500.67108877553,-34862.41815834262,-34874.778673026405,-21060.79710254635,-30582.550833529334
14792.563294477857,5061.306662715276,-23472.30446008497,-31524.207475686966,-34797.73220988896,-34922.09731603829,-21060.21595719051,-30719.969358440565
14808.276570829938,5034.596328091184,-23502.054631954987,-31554.15881325708,-34764.942200773025,-34933.74257489951,-21050.0682652078,-30719.969358440565
14830.091873418318,5070.314415730764,-23496.801972007986,-31530.95770251247,-34826.99064338096,-34898.04683900438,-21048.995381473946,-30585.613022519712
14811.919905176152,5092.19677355251,-23472.416218807248,-31504.18031265501,-34871.33650438029,-34876.81268177184,-21065.826245048793,-30572.269031079893
14786.505971730468,5052.701241099982,-23470.113989128353,-31517.47960060592,-34807.34346000475,-34904.685307107604,-21066.899128782647,-30702.020907642953
14795.223152068038,5012.199880146966,-23502.233445910628,-31555.835194091225,-34767.06561649628,-34943.8008599044,-21064.820416548304,-30733.715681280577
14819.050111657396,5041.033630494312,-23510.9506262482,-31546.827441075737,-34831.12571610519,-34906.585205386305,-21069.737800328472,-30615.34084264527
14818.156041879183,5089.425157240053,-23474.11495138585,-31502.57098705423,-34869.43660610159,-34862.529917064894,-21070.386000917675,-30560.33319954076
14797.659492213666,5072.1472587761,-23462.559099502458,-31515.66910930504,-34825.87305615819,-34911.07790602183,-21079.863140566726,-30678.350410264782
14791.848038655287,5013.116301669634,-23494.32092837345,-31564.552374428797,-34757.901401269606,-34949.38879601822,-21047.1178349397,-30730.049995189907
14808.678902230133,5026.750865787371,-23512.98463499363,-31563.367731972663,-34808.706916416515,-34919.50451368147,-21050.671762308095,-30625.66734858362
14817.753710478988,5091.503869474396,-23474.11495138585,-31501.788675998294,-34868.0284462009,-34858.19367864057,-21064.12751247019,-30537.735585896444
14796.430146268625,5077.064642556267,-23457.86523316684,-31497.877120718615,-34841.65338774364,-34890.76017031195,-21085.45107668055,-30648.980218050507
14795.6925387016,5028.941336743991,-23476.93127118722,-31536.657397348572,-34752.55933434478,-34945.2984267829,-21053.64454432065,-30737.828402260355
14819.653608757688,5039.960746760457,-23496.22082665215,-31548.637932376616,-34774.531099144355,-34927.61819691875,-21038.534765068864,-30648.44377618358
14820.301809346893,5085.24538102691,-23486.65428002528,-31521.41350763005,-34865.18977465508,-34883.56290859734,-21075.21397772002,-30555.52757448287
14809.304751074882,5101.249230056909,-23455.115968598842,-31500.179350397513,-34850.95171343705,-34883.83112953081,-21084.93698655808,-30627.29902592886
14804.141498105706,5054.645842867594,-23467.96822166064,-31534.265760691855,-34769.278439197355,-34938.77171740195,-21061.69117232456,-30736.42024235967
14833.26582113097,5055.38345043462,-23485.871968969343,-31546.827441075737,-34771.40185492061,-34934.92721735564,-21046.22376516149,-30677.746913164487
14833.198765897605,5092.9567328639905,-23478.07121015444,-31518.105449450668,-34844.11207963373,-34892.30244067937,-21065.26745143741,-30562.926001897576
14812.813974954364,5108.848823171714,-23449.30451504046,-31492.400943327066,-34846.05668140134,-34894.3364494248,-21077.627966121196,-30607.607139063733
14803.515649260957,5065.62054939515,-23453.908974398255,-31516.04908896078,-34769.39019791963,-34936.804763889886,-21065.49096888196,-30730.765251012475
14830.628315285245,5050.801342821282,-23473.779675219022,-31536.880914793124,-34745.809107519286,-34939.33051101333,-21045.77673027238,-30697.751724451988
14832.148233908205,5075.544723933306,-23478.630003765822,-31524.85567627617,-34824.308434046325,-34898.98561227151,-21061.82528279129,-30577.745208471446
14818.088986645816,5107.954753393502,-23445.705884183157,-31489.3834578256,-34844.46970754501,-34876.85738526075,-21073.582300374783,-30585.367153330702
14806.041396384408,5078.226933267943,-23445.72823592761,-31507.264853389843,-34769.12197698617,-34922.030260804924,-21059.679515323583,-30710.201646113594
14818.491318046013,5043.402915406575,-23479.434666566216,-31541.686539851016,-34738.5000870824,-34949.05351985139,-21046.2684686504,-30716.147210138704
14837.825576999854,5077.019939067357,-23482.765076490054,-31521.301748907776,-34807.99166059395,-34903.90299605167,-21057.533747855872,-30586.305926597826
14822.402873325691,5111.687494717538,-23455.942983143686,-31481.783864710793,-34857.52312630691,-34876.76797828293,-21076.89035855417,-30563.931830398065
14805.527306261934,5090.565096207273,-23444.29772428247,-31487.014172913336,-34785.97519230547,-34919.459810192566,-21069.44722765055,-30685.011230112465
14817.93252443463,5053.371793433642,-23468.750532716578,-31518.440725617496,-34726.27368286534,-34942.07977558133,-21049.151843685133,-30715.923692694152
14835.83627174333,5072.0578517982785,-23484.284995113016,-31513.1880656705,-34791.11609353019,-34911.10025776628,-21058.98661124547,-30598.15235115914
14829.55543155139,5112.246288328921,-23457.798177933477,-31472.46318727293,-34855.80204198385,-34878.75728353945,-21080.667803367116,-30543.90466736611
14811.78579470942,5096.756529421393,-23436.631075934303,-31469.84803317166,-34791.02668655237,-34907.85925482026,-21075.37043993121,-30649.851936084266
14817.865469201264,5049.348479431686,-23460.145111101283,-31509.56708306874,-34720.7975054738,-34940.001063346994,-21055.142111199155,-30716.92952119464
14835.880975232241,5055.629319623628,-23479.300556099482,-31515.803219771773,-34773.0111805214,-34918.49868518099,-21057.578451344783,-30619.073583969308
14834.718684520565,5107.664180715583,-23454.043084864985,-31477.537033264285,-34837.89829467515,-34874.37634162621,-21075.012812019922,-30537.71323415199
14814.31154183287,5105.764282436881,-23435.222916033617,-31472.46318727293,-34803.72247740298,-34894.24704244698,-21089.496742426963,-30631.232932952993
14807.941294663107,5049.99668002089,-23461.463864024146,-31513.47863834842,-34735.86258123667,-34945.656054694184,-21080.086658011278,-30730.541733567923
14830.784777496432,5046.554511374773,-23479.546425288492,-31523.223998930935,-34751.5535058443,-34929.04870856389,-21058.226651933986,-30645.269828470926
14842.854719502297,5101.606857968194,-23455.272430810026,-31481.292126332777,-34814.83129439727,-34872.49879509197,-21063.278146180888,-30535.031024817352
14819.184222124128,5106.390131281631,-23438.821546890922,-31471.300896561253,-34815.94888162004,-34890.3354871673,-21085.182855747087,-30608.903540242143
14809.572972008345,5059.630281881128,-23457.21703257764,-31510.61761505814,-34740.3999853611,-34960.67642696815,-21077.65031786565,-30725.31142536538
14826.69440826111,5052.7459445888935,-23479.88170145532,-31527.113202466157,-34737.6507207931,-34944.58317096033,-21057.287878666866,-30664.559383935855
14839.07727468935,5100.1763463230545,-23466.91768967124,-31492.46799856043,-34818.720497932496,-34890.04491448938,-21074.006983519434,-30541.647141176123
14822.358169836782,5118.169500609577,-23436.362855000836,-31466.51762324782,-34819.189884566054,-34877.75145503896,-21073.582300374783,-30577.633449749166
14799.872314914743,5060.9043313150805,-23453.439587764693,-31504.20266439947,-34753.02872097835,-34933.89903711069,-21069.246061950453,-30711.095715891806
14818.960704679574,5037.189130448,-23485.000250935587,-31533.304635680277,-34734.78969750282,-34957.01074087748,-21057.13141645568,-30685.70413419058
14832.528213563946,5077.466973956463,-23482.60861427887,-31509.634138302106,-34808.304585016325,-34907.1887024866,-21066.094465982256,-30563.44009202005
14824.660399515678,5115.040256385834,-23444.54359347148,-31466.159995336533,-34840.69226273206,-34879.15961493964,-21083.014736534922,-30563.596554231233
14803.917980661152,5072.7060523874825,-23447.471671995125,-31487.438856057986,-34771.40185492061,-34927.64054866321,-21069.40252416164,-30681.904337633176
14823.095777403805,5048.879092798125,-23474.338468830403,-31514.775039526827,-34726.38544158762,-34943.286769781924,-21044.189756416054,-30677.389285253204
14843.41351311368,5089.112232817678,-23480.70871600017,-31496.111332906647,-34802.47077971349,-34902.85246406227,-21067.61438460522,-30558.790929173345
14823.02872217044,5115.934326164046,-23459.183986089705,-31467.277582559298,-34852.203411126546,-34876.455053860554,-21087.775658103903,-30537.37795798516
14797.771250935943,5081.847915869703,-23460.614497734845,-31488.489388047386,-34789.73028537396,-34918.65514739217,-21081.874797567703,-30666.79455838139
14820.614733769267,5055.38345043462,-23482.60861427887,-31517.72546979493,-34741.96460747297,-34953.72503444255,-21070.65422185114,-30711.520399036457
14853.717667307577,5086.362968249675,-23484.374402090838,-31502.32511786522,-34793.194805764535,-34909.55798739886,-21065.759189815428,-30583.176682374084
14849.470835861068,5131.938175194046,-23452.433759264204,-31460.057969100235,-34848.917704691616,-34864.31805662132,-21078.74555334396,-30519.98830079893
14823.788681481921,5110.6816662170495,-23441.548459714468,-31468.283411059787,-34793.485378442456,-34903.299498951375,-21076.376268431697,-30637.7819940784
14825.487414060524,5060.7925725928035,-23471.70096298468,-31514.05978370426,-34741.58462781723,-34964.58798224783,-21072.911748041126,-30726.920750966165
14842.810016013387,5067.788668607315,-23494.79031500701,-31523.04518497529,-34788.299773728824,-34945.320778527355,-21078.812608577326,-30632.283464942393
14843.145292180216,5117.476596531463,-23465.844805937388,-31474.407789040542,-34847.42013781311,-34871.94000148058,-21087.708602870538,-30529.532495681346
14825.21919312706,5114.839090685737,-23440.274410280515,-31460.61676271162,-34809.57863445028,-34885.887490020694,-21080.1760649891,-30604.67906054009
14822.805204725886,5063.76535460536,-23463.766093703045,-31501.632213787107,-34740.064709194274,-34944.6502261937,-21075.348088186754,-30709.218169357562
14846.252184659505,5066.6040261511835,-23489.247082382095,-31518.12780119512,-34770.39602642012,-34952.182764075136,-21084.557006902338,-30647.08031977181
14850.566071339379,5115.77786395286,-23465.44247453719,-31475.883004174593,-34835.55136150734,-34885.9321935096,-21075.37043993121,-30526.76087936889
14824.436882071124,5118.996515154424,-23438.01688409053,-31454.64884694205,-34822.58734972326,-34875.35981838225,-21079.70667835554,-30586.596499275747
14816.83728895632,5073.533066932329,-23453.39488427578,-31488.221167113923,-34748.82659302075,-34935.24014177801,-21073.872873052704,-30709.12876237974
14836.909155477186,5059.317357458754,-23482.273338112038,-31509.72354527993,-34750.413566877076,-34936.804763889886,-21066.139169471167,-30663.195927524084
14848.219138171571,5104.847860914214,-23470.7398379731,-31477.13470186409,-34837.0712801303,-34887.69798132157,-21084.534655157884,-30541.513030709393
14825.08508266033,5115.666105230583,-23445.527070227512,-31453.441852741464,-34852.203411126546,-34880.12073995123,-21106.573475190817,-30579.466292794503
14809.371806308247,5065.061755783768,-23454.668933709734,-31486.969469424424,-34764.942200773025,-34939.28580752442,-21085.339317958274,-30704.21137859957
14825.733283249532,5039.200787448977,-23487.21307363666,-31519.982995984912,-34746.837287764225,-34955.35671178779,-21062.339372913764,-30690.062724359363
14838.451425844602,5079.143354790611,-23481.625137522835,-31492.08801890469,-34815.54655021984,-34900.237309961,-21073.98463177498,-30565.496452509935
14813.484527288025,5095.1025003317,-23453.21607032014,-31461.332018534187,-34846.99545466846,-34879.29372540638,-21091.26253023893,-30561.115510596697
14799.760556192465,5059.183246992022,-23448.65631445126,-31476.687666974984,-34772.27357295437,-34920.86797009325,-21083.79704759086,-30685.12298883474
14816.233791856026,5028.449598365974,-23478.965279932654,-31506.326080122722,-34731.01225268987,-34949.47820299604,-21065.893300282158,-30698.98107039703
14840.060751445384,5067.878075585137,-23477.490064798603,-31483.907280434047,-34794.96059357651,-34903.1877402291,-21065.647431093148,-30566.27876356587
14830.270687373959,5104.266715558376,-23447.426968506214,-31447.920971861004,-34843.15095462215,-34865.70386477755,-21082.65710862364,-30531.611207915692
14800.386405037214,5065.911122073069,-23452.389055775293,-31469.579812238197,-34794.42415170958,-34916.97876655802,-21087.619195892716,-30662.167747279138
14808.008349896474,5024.649801808572,-23477.467713054146,-31506.437838845,-34736.287264381324,-34960.899944412704,-21071.972974774002,-30714.40377407119
14826.873222216753,5042.419438650541,-23488.151846903784,-31504.292071377287,-34788.63504989565,-34917.53756016941,-21077.672669610103,-30601.01337444942
14819.228925613037,5083.569000192761,-23467.185910604705,-31468.328114548698,-34857.56782979582,-34881.30538240736,-21098.16921927562,-30540.28368476435
14800.855791670776,5073.153087276589,-23446.801119661468,-31461.13085283409,-34803.87893961417,-34900.68434485011,-21086.233387736487,-30638.139621989685
14808.388329552214,5036.831502536715,-23469.286974583505,-31497.13951315159,-34737.09192718171,-34945.656054694184,-21068.955489272535,-30717.041279916917
14843.502920091501,5057.506866157873,-23481.64748926729,-31497.832417229703,-34777.950916046015,-34923.03608930542,-21071.436532907075,-30623.20865669354
14843.011181713484,5100.891602145624,-23464.92838441472,-31467.65756221504,-34848.40361456914,-34879.91957425113,-21093.475352940008,-30533.399347472114
14811.003483653485,5088.262866528376,-23450.578564474414,-31465.422387769508,-34819.480457243975,-34896.90690003716,-21097.0292803084,-30622.493400870968
14806.26491382896,5040.184264205011,-23469.532843772515,-31504.470885332932,-34747.887819753625,-34955.26730480997,-21084.780524346894,-30730.608788801288
14829.22015538456,5037.926738015025,-23489.247082382095,-31517.34549013919,-34760.53890711533,-34942.43740349262,-21070.78833231787,-30661.810119367856
14830.851832729797,5081.557343191784,-23480.284032855518,-31488.31057409174,-34848.31420759132,-34900.86315880575,-21095.50936168544,-30556.75692042791
14820.12299539125,5100.511622489885,-23450.578564474414,-31462.94134413497,-34849.36473958072,-34887.3850568992,-21119.313969530343,-30618.715956058022
14816.792585467409,5057.931549302524,-23453.39488427578,-31490.121065392625,-34745.384424374635,-34936.804763889886,-21081.852445823246,-30729.982939956542
14841.804187512898,5048.454409653475,-23475.32194558644,-31510.349394124678,-34724.06086016427,-34939.53167671343,-21041.328733125774,-30673.34361950679
14840.731303779043,5082.987854836923,-23476.6406985093,-31490.724562492916,-34816.977061864985,-34890.20137670057,-21067.03323924938,-30556.265182049894
14812.523402276445,5099.461090500485,-23452.657276708756,-31469.378646538098,-34846.257847101435,-34887.96620225504,-21107.51224845794,-30587.892900454153
14809.774137708442,5074.136564032622,-23453.35018078687,-31488.601146769663,-34779.984924791446,-34940.29163602491,-21115.290655528388,-30722.562160797377
14834.6516292872,5053.595310878195,-23474.517282786048,-31513.925673237525,-34731.07930792324,-34952.00395011949,-21059.277183923386,-30692.432009271626
14858.389181898736,5099.0587591002895,-23465.353067559372,-31481.60505075515,-34788.567994662284,-34879.405484128656,-21036.701922023527,-30539.791946386333
14833.377579853248,5117.834224442748,-23450.779730174512,-31461.354370278645,-34836.37837605219,-34866.9779142115,-21066.563852615818,-30540.14957429762
14810.020006897452,5076.617607667161,-23457.08292211091,-31490.65750725955,-34790.17732026307,-34930.00983357547,-21082.858274323735,-30685.30180279038
14818.536021534923,5040.005450249369,-23484.6426230243,-31526.95674025497,-34739.505915582886,-34962.308104313386,-21075.392791675662,-30716.5495415389
14842.608850313289,5073.510715187874,-23487.995384692596,-31509.500027835376,-34801.62141342419,-34913.91657756765,-21075.325736442297,-30583.131978885172
14838.272611888959,5115.621401741672,-23456.03239012151,-31466.495271503365,-34851.33169309279,-34874.39869337067,-21089.675556382605,-30535.835687617742
14818.625428512745,5094.074320086756,-23445.10238708286,-31471.837338428184,-34791.47372144148,-34910.56381589935,-21089.40733544914,-30653.696436130576
14829.108396662283,5056.925720802035,-23466.291840826492,-31501.14047540909,-34728.71002301097,-34941.58803720332,-21063.144035714155,-30700.746858209
14845.93926023713,5063.921816816547,-23490.275262627038,-31506.19196965599,-34791.31725923029,-34917.425801447134,-21069.111951483723,-30595.380734846683
14845.402818370203,5107.3959597821195,-23465.576585003924,-31467.881079659594,-34850.884658203686,-34876.70092304956,-21087.239216236976,-30524.011614800886
14826.135614649727,5099.751663178404,-23448.49985224007,-31466.294105803267,-34808.572805949785,-34899.41029541616,-21087.105105770246,-30622.8286770378
14819.608905268778,5053.125924244634,-23471.70096298468,-31506.147266167078,-34739.77413651635,-34945.83486864983,-21072.08473349628,-30708.32409957935
14834.673981031656,5057.663328369061,-23493.583320806425,-31517.14432443909,-34773.07823575476,-34931.79797313189,-21073.917576541615,-30618.783011291387
14851.638955073233,5114.034427885345,-23468.37055306084,-31473.916050662527,-34840.28993133187,-34881.32773415181,-21085.69694586956,-30513.908626307086
14829.577783295845,5113.699151718516,-23444.700055682668,-31458.381588266086,-34817.55820722082,-34891.497777878976,-21091.284881983385,-30597.10181916974
14823.878088459742,5071.029671553334,-23457.6864192112,-31490.501045048364,-34741.338758628226,-34945.14196457171,-21073.78346607488,-30703.205550099083
14838.294963633414,5056.255168468377,-23492.286919628015,-31516.876103505627,-34763.891668783624,-34943.24206629301,-21070.006021261936,-30639.480726657002
14847.012143970984,5103.573811480262,-23475.903090942276,-31481.33682982169,-34832.556227750334,-34883.451149875065,-21082.12066675671,-30521.105888021695
14828.191975139616,5116.6719337310715,-23446.197622561172,-31458.31453303272,-34823.3696607792,-34876.36564688273,-21088.535617415386,-30569.743283956446
14815.83146045583,5072.951921576491,-23456.792349432988,-31488.779960725304,-34752.96166574498,-34930.81449637586,-21079.3266986998,-30697.5952622408
14837.490300833024,5057.931549302524,-23484.39675383529,-31513.277472648322,-34745.943217986016,-34944.38200526023,-21069.670745095103,-30659.73140713351
14850.02962947245,5097.561192221784,-23482.385096834314,-31490.679859004005,-34831.68450971657,-34898.94090878259,-21102.058422810846,-30541.110699309196
14834.986905454029,5121.857538444703,-23461.41916053524,-31467.277582559298,-34872.34233288078,-34889.77669355592,-21151.254612356977,-30577.678153238077
14820.45827155808,5084.239552526421,-23449.908012140753,-31484.309611834244,-34763.3552269167,-34932.91556035466,-21069.916614284113,-30682.21726205555
14826.493242561013,5053.304738200276,-23479.546425288492,-31517.52430409483,-34728.531209055334,-34959.715301956574,-21037.327770868276,-30670.326134005325
14844.732266036543,5086.877058372147,-23487.905977714778,-31500.984013197904,-34823.61552996821,-34914.3412607123,-21091.240178494478,-30560.064978607297
14838.674943289156,5121.522262277873,-23455.20537557666,-31461.063797600724,-34860.13828040818,-34874.46574860403,-21123.002007365467,-30553.51591748189
14803.672111472144,5074.941226833013,-23456.41236977725,-31485.80717871275,-34779.40377943561,-34930.59097893131,-21093.721222129014,-30677.45634048657
14809.572972008345,5033.925775757525,-23481.73689624511,-31520.295920407287,-34733.18037190204,-34966.80080494891,-21059.076018223288,-30703.674936732645
14832.707027519587,5063.139505760611,-23483.12270440134,-31502.794504498783,-34783.5612039043,-34908.01571703145,-21051.297611152844,-30556.66751345009
14818.670132001655,5094.230782297943,-23464.056666380962,-31476.24063208588,-34838.03240514188,-34885.753379553964,-21074.96810853101,-30518.647196131613
14804.700291717088,5081.914971103069,-23442.844860892877,-31473.044332628768,-34791.80899760831,-34913.31308046736,-21084.735820857983,-30651.193040751583
14812.523402276445,5038.396124648586,-23461.21799483514,-31504.448533588475,-34728.48650556642,-34945.164316316164,-21067.770846816406,-30694.667183717156
14834.897498476208,5054.757601589871,-23477.467713054146,-31503.912091721548,-34762.46115713849,-34915.63766189071,-21051.431721619574,-30570.749112456935
14831.83530948583,5099.975180622957,-23452.813738919944,-31464.550669735752,-34827.862361414715,-34865.2791816329,-21071.794160818357,-30504.833818058232
14804.677939972633,5084.083090315234,-23440.564982958436,-31463.45543425744,-34808.95278560553,-34898.560929126856,-21100.873780354712,-30621.33111015929
14811.562277264868,5052.343613188697,-23452.322000541928,-31488.847015958672,-34732.88979922412,-34942.1468308147,-21077.94089054357,-30711.296881591905
14821.374693080747,5043.157046217567,-23483.41327707926,-31506.169617911535,-34757.85669778069,-34928.06523180786,-21060.484178123974,-30615.229083922994
14816.367902322758,5073.398956465597,-23473.51145428556,-31476.866480930625,-34836.668948730105,-34882.3335626523,-21074.699887597548,-30514.579178640746
14800.162887592662,5078.070471056756,-23442.375474259316,-31456.36993126511,-34818.67579444359,-34892.458902890554,-21081.517169656418,-30592.76558074541
14795.35726253477,5036.250357180877,-23453.372532531328,-31487.014172913336,-34738.20951440448,-34941.4986302255,-21067.9720125165,-30701.998555898495
14812.188126109617,5022.593441318684,-23484.575567790936,-31510.14822842458,-34750.5029738549,-34949.500554740494,-21066.765018315917,-30644.95690404855
14830.829480985341,5077.601084423195,-23468.035276894007,-31473.357257051142,-34822.09561134525,-34890.9836877565,-21074.811646319824,-30521.731736866444
14815.607943011279,5095.661293943083,-23439.849727135865,-31448.993855594857,-34824.66606195761,-34883.54055685289,-21081.53952140087,-30566.43522577706
14799.179410836627,5049.214368964955,-23449.483328996103,-31482.94615542247,-34742.97043597346,-34941.96801685906,-21074.58812887527,-30696.03064012893
14819.608905268778,5036.116246714145,-23477.758285732067,-31507.33190862321,-34735.1473254141,-34949.61231346277,-21063.70282932554,-30664.805253124865
14834.428111842646,5077.444622212008,-23470.82924495092,-31474.117216362625,-34807.1646460491,-34879.09255970628,-21068.55315787234,-30530.13599278164
14818.513669790467,5101.696264946016,-23437.72631141261,-31439.82964036818,-34822.36383227871,-34859.42302458561,-21079.058477766335,-30538.47319346347
14802.398062038192,5061.23960748191,-23439.73796841359,-31460.99674236736,-34752.33581690023,-34913.2907287229,-21071.280070695888,-30672.002514839474
14815.362073822269,5028.360191388153,-23473.93613743021,-31499.86642597514,-34726.363089843166,-34943.44323199311,-21059.254832178933,-30676.58462245281
14833.93637346463,5065.531142417329,-23476.394829320292,-31480.88979493258,-34791.63018365266,-34896.2363477035,-21066.809721804824,-30546.542173211838
14819.31833259086,5098.209392810988,-23450.466805752138,-31450.13379456208,-34838.077108630794,-34867.67081828962,-21084.959338302535,-30527.029100302352
14797.257160813471,5064.882941828125,-23450.35504702986,-31468.216355826422,-34777.660343368094,-34908.37334494273,-21081.472466167506,-30654.322284975326
14803.605056238779,5029.388371633097,-23484.262643368562,-31510.08117319121,-34730.05112767829,-34947.846525650806,-21066.765018315917,-30690.800331926388
14829.913059462675,5058.177418491533,-23486.117838158352,-31497.497141062875,-34782.5106719149,-34910.60851938826,-21065.893300282158,-30567.23988857745
14826.202669883094,5099.170517822567,-23454.713637198645,-31458.09101558817,-34834.21025684002,-34871.15769042465,-21076.912710298624,-30511.584044883737
14804.744995206,5078.383395479131,-23439.11211956884,-31460.817928411714,-34783.24827948192,-34907.25575771997,-21070.140131728665,-30627.008453250943
14812.054015642885,5039.111380471156,-23458.87106166733,-31496.536016051297,-34713.153208870084,-34947.1983250616,-21044.189756416054,-30688.431047014124
14828.907230962186,5050.846046310192,-23480.865178211356,-31503.442705087986,-34763.757558316895,-34918.43162994762,-21045.374398872187,-30592.117380156207
14829.846004229308,5101.539802734828,-23456.88175641081,-31464.70713194694,-34830.812791682816,-34871.3812078692,-21061.26648917991,-30515.47324841896
14802.845096927298,5086.944113605513,-23444.11891032683,-31465.08711160268,-34802.761352391404,-34888.413237144145,-21061.758227557926,-30616.726650801498
14790.819858410343,5030.103627455667,-23469.689305983702,-31513.255120903865,-34731.191066645515,-34945.656054694184,-21039.1159104247,-30716.70600375009
14813.395120310202,5033.009354234857,-23490.141152160308,-31527.940217011004,-34752.73814830043,-34931.79797313189,-21031.672779521083,-30637.290255700384
14817.373730823247,5079.657444913083,-23475.36664907535,-31497.206568384954,-34831.66215797212,-34878.824338772814,-21046.82726226178,-30534.963969583987
14794.21732356755,5080.909142602581,-23454.378361031817,-31484.24255660088,-34828.24234107046,-34881.12656845171,-21064.418085148107,-30614.379717633692
14782.505009472969,5029.94716524448,-23472.058590895962,-31524.29688266479,-34755.19684019051,-34933.89903711069,-21049.174195429587,-30731.435803346136
14809.751785963988,5026.974383231925,-23491.437553338714,-31541.552429384286,-34745.85381100819,-34925.96416782906,-21016.20537235801,-30667.800386881878
14817.016102911963,5060.278482470332,-23486.184893391717,-31518.641891317595,-34830.723384704994,-34878.93609749509,-21033.617381288695,-30552.644199448136
14797.190105580105,5074.248322754899,-23455.674762210223,-31494.14437939458,-34845.54259127886,-34868.45312934555,-21036.54545981234,-30597.839426736766
