Fp1,Fp2,C3,C4,P7,P8,O1,O2
14377.93843483191,5072.259017498376,-24298.20141770857,-32048.065310486,-35665.24811568834,-35570.99080932031,-22087.70329805652,-31787.779246303948
14420.04912138571,5041.346554916687,-24348.828118899837,-32095.518063964617,-35745.98261666091,-35626.937225691945,-22175.456246788057,-31856.533212248472
14317.208745146841,5087.1005758167,-24310.070194014337,-32020.438554339238,-35996.21039583807,-35567.727454629836,-22342.37907438029,-31905.483532605595
14261.351735753029,5123.042180900834,-24251.32980958579,-31963.262792022564,-35944.466107424036,-35503.466189320825,-22276.93316661515,-31839.43412774016
14360.906405556967,5083.300779259298,-24278.487179098986,-32025.646510797324,-35684.42591243099,-35543.16288747345,-22098.00745225042,-31780.358467144786
14425.927630177455,5034.573976346729,-24342.994313597002,-32088.007877827633,-35708.31992725372,-35611.29100457323,-22143.85088012825,-31837.60128469483
14336.833576778601,5068.280406985332,-24322.3413017203,-32032.86612425639,-35968.69539841359,-35575.46115821137,-22330.4208910967,-31908.992756485077
14253.908604849412,5109.608782483195,-24264.80791149234,-31970.08007408143,-35986.66620095565,-35522.152247685466,-22317.65804501272,-31869.385465310275
14336.900632011966,5086.497078716407,-24271.200510406557,-32013.978900191654,-35719.898130881564,-35541.441803150396,-22119.912161816617,-31784.426484635653
14428.81100521219,5041.234796194411,-24341.362636251764,-32097.864997132423,-35672.98181926987,-35623.62916751256,-22117.676987371087,-31822.089174042845
14362.314565457651,5069.554456419284,-24334.05361581488,-32054.234391955662,-35923.075487980306,-35587.66521068397,-22303.956425661618,-31895.13467492279
14265.911491621911,5121.969297166979,-24267.110141171237,-31966.324981012942,-36001.373648807246,-35513.59152955908,-22326.12935616128,-31868.245526343053
14322.50610858275,5105.026674869857,-24264.27146962541,-31995.114027871376,-35762.209983135464,-35527.315500654644,-22143.20267953905,-31792.808388806392
14426.598182511114,5047.180360219522,-24330.834964613317,-32087.31497374952,-35648.2160864134,-35603.91492890298,-22090.385507391158,-31810.645080881728
14387.214408780863,5058.579749891728,-24339.887421117714,-32061.498708903637,-35876.47210079099,-35603.40083878051,-22270.853492123308,-31883.891747461766
14272.72877368078,5112.827433684759,-24276.162597675633,-31970.884736881824,-36022.60780603979,-35520.74408778478,-22346.04476047096,-31871.44182580016
14306.54696304166,5118.504776776406,-24248.46878629551,-31969.878908381335,-35802.84545455521,-35504.65083177696,-22168.86248217374,-31787.645135837214
14425.592354010625,5065.195866250499,-24307.745612590985,-32060.492880403148,-35626.19961812492,-35574.768254133254,-22068.145521658127,-31783.778284046446
14406.682778201435,5053.6847178560165,-24341.76496765196,-32071.422883441795,-35816.7035361175,-35605.01016438129,-22226.73114856853,-31868.20082285414
14283.837590675068,5100.1763463230545,-24288.321946659322,-31989.391981290817,-36013.26477685747,-35534.84803853608,-22346.26827791551,-31880.382523582284
14277.243826060752,5107.1053871042,-24257.968277689015,-31982.66410620977,-35859.26125756041,-35525.32619539812,-22217.03049147493,-31812.030889037957
14394.836353640123,5053.8635318116585,-24307.835019568804,-32062.39277868185,-35642.13641192155,-35583.48543447083,-22077.287385140346,-31785.901699769704
14416.271676572762,5035.579804847218,-24348.179918310634,-32084.297488248052,-35778.75027403239,-35613.727344718856,-22200.221979644535,-31862.724645462593
14298.857962949034,5083.323131003754,-24299.341356675788,-32005.14996113181,-36010.04612565591,-35551.27657071073,-22350.04572272846,-31894.285308633487
14268.884273634467,5116.6719337310715,-24248.89346944016,-31964.022751334043,-35906.557548827834,-35511.244596391276,-22253.039151792425,-31829.129973546267
14387.326167503139,5083.43488972603,-24280.744705288973,-32024.417164852282,-35650.7641852813,-35558.51853591425,-22080.88601599765,-31780.023190977958
14433.504871547804,5047.537988130807,-24335.372368737742,-32074.462720687716,-35725.95545362895,-35607.93824290494,-22164.548595493867,-31845.983188865568
14326.775291773713,5086.206506038488,-24305.2869207009,-32007.295728599518,-35986.755607933475,-35563.5476784167,-22342.155556935737,-31897.816884257423
14261.642308430948,5115.174366852566,-24251.530975285885,-31954.187983773707,-35941.9850637895,-35498.79467472967,-22275.525006714466,-31834.404985237717
14350.021106007232,5067.676909885038,-24285.885606513693,-32028.507534087603,-35685.945831053956,-35559.74788185929,-22098.43213539507,-31782.48188286804
14428.073397645165,5030.9082902560585,-24342.59198219681,-32089.617203428414,-35689.81268284472,-35613.59323425213,-22134.776071879398,-31831.141630547245
14335.157195944454,5053.014165522357,-24330.454984957574,-32039.57164759298,-35955.82079360733,-35585.340629260616,-22328.677455029185,-31898.93447148019
14250.801712370125,5100.466919000974,-24265.634926037186,-31965.274449023542,-35988.3425817898,-35519.73825928429,-22320.764937492007,-31863.037569884968
14333.190242432385,5084.396014737608,-24265.880795226192,-31997.885644183832,-35720.97101461542,-35524.67799480892,-22121.767356606408,-31773.518833341463
14422.843089442622,5030.66242106705,-24337.965171094558,-32077.748427122646,-35660.129566208074,-35604.47372251436,-22106.724632587986,-31800.318574943376
14355.966670032343,5047.895616042092,-24342.189650796612,-32048.981732008666,-35917.44284837757,-35593.85664389809,-22300.22368433758,-31888.473855075106
14249.77353212518,5097.158860821589,-24279.940042488583,-31975.42214100625,-36016.72929724804,-35527.69548031038,-22343.94369649216,-31872.53706127847
14303.708291495836,5090.185116551533,-24267.490120826977,-31995.561062760484,-35776.64921005359,-35515.51377958224,-22159.47474950251,-31785.0523334804
14417.813946940178,5038.6643455820495,-24326.744595377993,-32065.767892094602,-35644.59510381164,-35589.810978151676,-22089.84906552423,-31786.57225210336
14372.305795229173,5033.635203079606,-24350.660961945174,-32061.722226348193,-35874.50514727893,-35604.361963792086,-22272.373410746266,-31878.102645647843
14266.649099188937,5096.220087554466,-24279.113027943735,-31968.33663801392,-36023.591282795824,-35529.01423323325,-22354.627830341797,-31877.65561075874
14293.560599513126,5106.01015162589,-24252.961486931024,-31968.068417080456,-35816.56942565077,-35514.70911678185,-22184.598110270275,-31792.361353917284
14404.782879922734,5043.581729362218,-24323.43653719861,-32068.38304619587,-35640.281217131764,-35588.38046650654,-22082.651803809622,-31788.583909104338
14398.010301352777,5037.725572314927,-24354.01372361347,-32078.173110267297,-35823.49846643191,-35614.353193563606,-22240.00808477498,-31877.856776458833
14279.143724339454,5092.91202937508,-24296.56974036333,-31987.223862078652,-36017.91393970417,-35534.13278271351,-22349.75515005054,-31884.629355028792
14266.9173201224,5102.210355068488,-24260.18110039009,-31967.174347302243,-35861.78700468386,-35505.65666027745,-22213.610674573265,-31801.033830765944
14386.27563551374,5053.461200411463,-24307.343281190788,-32047.886496530355,-35640.214161898395,-35572.71189364337,-22073.733457771952,-31769.651981550694
14404.693472944913,5031.8470635231815,-24356.852395159294,-32084.83393011498,-35769.07196868324,-35613.861455185586,-22194.544636552888,-31848.419529011197
14290.654872733936,5084.284256015331,-24311.366595192743,-32003.76415297558,-36012.37070707926,-35551.991826533296,-22358.025295499003,-31895.447599345163
14254.534453694161,5113.2074133404985,-24261.410446335132,-31963.55336470048,-35919.05217397835,-35513.815047003634,-22261.59986991881,-31828.325310745873
14367.433114937916,5068.727441874438,-24296.94972001907,-32033.00023472312,-35666.87979303358,-35563.95000981689,-22095.347594660234,-31776.782188031935
14418.931534162944,5031.780008289816,-24355.220717814056,-32083.001087069642,-35732.61627347663,-35611.134542362044,-22176.082095632806,-31840.81993589639
14310.793794488169,5063.586540649717,-24329.784432623917,-32021.91376947329,-35995.629250482234,-35577.651629167995,-22352.83969078537,-31899.537968580484
14248.208910013309,5106.077206859256,-24263.84678648076,-31956.199640774685,-35959.419424464635,-35510.21641614633,-22289.65130921022,-31834.986130593556
14347.942393772888,5081.892619358614,-24279.85063551076,-32009.396792578318,-35690.416179945016,-35531.11529721204,-22101.606083107723,-31764.37696985924
14424.430063298949,5038.932566515514,-24344.67069443115,-32068.62891538488,-35684.470615919905,-35596.36003927708,-22127.6235136537,-31808.745182603026
14336.78887328969,5065.687604628516,-24338.23339202802,-32029.24514165463,-35955.77609011842,-35578.59040243511,-22327.962199206617,-31890.619622542814
14253.729790893769,5115.621401741672,-24265.389056848177,-31949.494117438095,-35989.348410290295,-35507.176578900406,-22324.363568349312,-31848.464232500108
14324.651876050459,5090.565096207273,-24270.731123772995,-31986.82153067846,-35728.34709028567,-35544.8392683076,-22128.539935176366,-31774.61406881977
14423.781862709746,5042.195921205988,-24335.662941415663,-32066.10316826143,-35657.7155778069,-35590.593289207616,-22105.964673276507,-31803.537226144937
14357.374829933027,5050.622528865639,-24342.659037430174,-32041.04686272703,-35911.40787737464,-35586.726437416844,-22300.067222126392,-31890.865491731824
14245.683162889858,5094.253134042398,-24283.31515590133,-31965.05093157899,-36022.831323484344,-35522.50987559675,-22352.99615299656,-31875.532195035485
14292.510067523726,5084.820697882259,-24272.85453949625,-31982.798216676503,-35790.84256778271,-35528.008404732755,-22178.317270078336,-31792.562519617382
14405.632246212035,5034.708086813461,-24334.29948500389,-32069.567688652005,-35653.73696729386,-35601.16566433498,-22106.590522121256,-31803.62663312276
14371.165856261952,5035.825674036226,-24351.063293345367,-32059.91173504731,-35863.53044075137,-35601.23271956834,-22267.187806032634,-31883.668230017214
14258.602471185026,5093.6049334531945,-24285.706792558052,-31970.772978159548,-36022.94308220662,-35534.42335539143,-22356.1253972203,-31886.1269219073
14280.551884240138,5104.400826025108,-24250.61455376322,-31964.827414134434,-35823.27494898736,-35520.85584650706,-22194.790505741898,-31806.666470368684
14384.196923279396,5036.987964747902,-24319.077947029826,-32063.48801416016,-35637.80017349722,-35590.48153048534,-22085.22225442198,-31791.377877161252
14382.699356400892,5022.481682596407,-24359.02051437146,-32077.077874788985,-35818.201102996005,-35627.496019303326,-22240.16454698617,-31874.995753168554
14273.600491714536,5080.238590268921,-24298.603749108763,-31988.81083593498,-36024.48535257403,-35546.15802123046,-22366.764827581028,-31890.239642887074
14258.535415951661,5096.555363721295,-24255.688399754574,-31954.545611684993,-35875.533327523866,-35512.071610936124,-22231.983808515528,-31808.72283085857
14374.65272839698,5050.555473632273,-24304.34814743378,-32037.180010936263,-35645.93620847895,-35579.64093442451,-22079.969594474984,-31770.680161795637
14400.916028131966,5029.835406522204,-24352.069121845856,-32072.316953220008,-35761.20415463497,-35612.743867962825,-22192.39886908518,-31846.810203410412
14284.485791264271,5072.214314009466,-24315.121688261235,-32005.1052576429,-36011.18606462313,-35566.47575694034,-22363.076789745905,-31900.83436975889
14245.683162889858,5102.72444519096,-24258.303553855843,-31958.27835300903,-35925.40006940366,-35514.84322724858,-22271.68050666815,-31829.688767157648
14357.732457844313,5065.709956372972,-24288.70192631506,-32022.38315610685,-35665.0693017327,-35559.30084697018,-22092.955958003517,-31769.8978507397
14407.554496235192,5024.985077975402,-24353.43257825763,-32077.63666840037,-35718.75819191435,-35623.226836112364,-22161.441703014578,-31833.980302093067
14309.206820631842,5062.983043549424,-24324.084737787813,-32012.771905991067,-35979.71480843006,-35574.164757032966,-22344.748359292553,-31896.40872435674
14243.49269193324,5105.786634181337,-24261.14222540167,-31947.92949532622,-35960.55936343186,-35514.06091619264,-22299.59783549283,-31838.7635754065
14333.346704643573,5072.460183198475,-24283.605728579252,-32002.601862263902,-35699.73685738288,-35551.38832943301,-22115.79944083684,-31767.70737978308
14416.919877161967,5028.51665359934,-24345.87768863174,-32070.8193863415,-35677.899203050045,-35600.67392595696,-22128.04819679835,-31805.794752334925
14333.704332554858,5051.650709110583,-24338.211040283568,-32027.635816053848,-35938.05115676536,-35575.72937914483,-22318.30624560192,-31887.35626785234
14242.95625006631,5101.852727157203,-24271.938117973583,-31954.478556451628,-35991.382419035726,-35509.344698112574,-22327.872792228794,-31852.442843013152
14312.000788688754,5082.183192036533,-24274.866196497227,-31989.61549873537,-35739.45590727996,-35538.75959381576,-22141.883926616185,-31776.871595009758
14414.483537016338,5033.881072268614,-24340.423862984644,-32066.281982217075,-35654.36281613861,-35597.67879219995,-22112.647844868643,-31804.319537200874
14355.36317293205,5044.252281695876,-24349.118691577758,-32047.752386063625,-35899.60615630224,-35598.77402767826,-22297.496771514034,-31887.602137041347
14250.108808292009,5099.349331778209,-24284.81272277984,-31967.621382191348,-36019.32209960486,-35530.15417220046,-22354.71723731962,-31875.21927061311
14294.54407626916,5095.9518666210015,-24267.601879549253,-31980.18306257523,-35788.54033810381,-35526.689651809895,-22175.67976423261,-31792.76368531748
14407.33097879064,5042.486493883907,-24328.57743842333,-32059.554107136028,-35641.35410086562,-35601.769161435266,-22094.453524882025,-31793.501292884506
14372.55166441818,5034.149293202078,-24356.025380614446,-32066.840775828456,-35854.05330110232,-35615.739001719834,-22259.58821291783,-31875.085160146376
14258.937747351856,5090.185116551533,-24290.668879827128,-31976.919707884757,-36022.42899208415,-35540.14540197199,-22356.23715594258,-31876.985058425078
14281.40125052944,5106.233669070443,-24253.073245653304,-31962.167556544253,-35828.59466416772,-35517.27956739421,-22200.847828489284,-31791.467284139075
14397.093879830109,5053.930587045024,-24314.58524639431,-32055.24022045615,-35633.083955417154,-35592.38142876404,-22082.98707997645,-31779.53145259994
14396.289217029718,5042.620604350639,-24355.44423525861,-32072.093435775452,-35804.72300108946,-35610.03930688373,-22232.38613991572,-31868.491395532063
14286.519800009704,5104.043198113823,-24296.614443852242,-31980.38422827533,-36020.32792810535,-35548.929637542926,-22371.279879961003,-31902.398991870763
14270.560654468616,5125.165596624088,-24251.978010174993,-31944.934361569212,-35884.47402530599,-35509.25529113475,-22240.83509931983,-31817.19414200713
14393.092917572609,5081.423232725052,-24289.059554226347,-32012.66014726879,-35641.823487499176,-35553.06471026716,-22077.42149560708,-31756.15152789969
14421.56904000867,5046.219235207944,-24339.842717628806,-32058.235354213164,-35742.65220673707,-35605.79247543722,-22175.702115977063,-31829.97933983557
14300.511992038726,5078.092822801212,-24309.824324825327,-31992.76709470357,-35996.970355149555,-35569.98498081982,-22348.57050759441,-31891.714858021125
14248.410075713406,5105.943096392524,-24257.99062943347,-31945.69432088069,-35928.19403746057,-35516.832532505105,-22270.69702991212,-31824.167886277188
14360.593481134592,5070.515581430863,-24283.94100474608,-32004.322946586963,-35666.20924069992,-35546.403890419475,-22090.161989946606,-31758.409054089672
14428.47572904536,5041.793589805793,-24338.211040283568,-32056.760139079113,-35702.75434288434,-35617.0577546427,-22146.130758062693,-31819.161095519197
14320.337989370584,5062.893636571603,-24328.420976212143,-32014.53769380304,-35980.27360204144,-35575.684675655924,-22343.071978458403,-31891.960727210135
14250.421732714383,5109.787596438837,-24261.74572250196,-31944.42027144674,-35972.9422298601,-35508.45062833436,-22306.772745462986,-31839.143555062245
14344.187300704396,5086.38531999413,-24267.221899893513,-31978.66314395227,-35698.529863182295,-35541.84413455059,-22110.27855995638,-31765.271039637453
14426.017037155276,5034.015182735346,-24337.406377483177,-32058.637685613357,-35672.17715646949,-35620.008184910796,-22124.85189734124,-31815.227188495064
14346.064847238642,5054.042345767301,-24331.23729601351,-32018.225731638162,-35929.33397642779,-35588.58163220664,-22309.052623397427,-31884.65170677325
14245.280831489663,5094.700168931505,-24270.932289473094,-31944.50967842456,-35995.07045687085,-35518.710079039345,-22325.548210805442,-31848.374825522285
14319.667437036926,5082.943151348013,-24261.298687612856,-31965.632076934828,-35741.713433469944,-35527.248445421275,-22134.61960966821,-31767.394455360707
14424.89944993251,5034.864549024648,-24326.454022700076,-32050.814575054002,-35648.73017653587,-35601.79151317972,-22098.208617950513,-31790.349696916306
14372.37285046254,5047.783857319815,-24335.662941415663,-32026.562932319994,-35885.79277822885,-35596.42709451045,-22277.84958813782,-31876.046285157954
14262.044639831143,5102.545631235317,-24270.060571439335,-31940.843992333892,-36010.113180889275,-35528.07545996612,-22340.70269354614,-31862.322314062396
14297.963893170821,5097.851764899703,-24253.006190419936,-31955.439681463205,-35790.64140208261,-35532.277587923716,-22171.231767086003,-31778.167996188167
14412.248362570806,5037.926738015025,-24315.926351061626,-32049.47347038668,-35634.46976357338,-35597.499978244305,-22084.261129410403,-31784.359429402284
14389.874266371044,5036.183301947511,-24340.021531584447,-32047.305351174517,-35840.374033495675,-35602.529120746745,-22247.87589882325,-31863.283439073974
14272.169980069397,5093.984913108935,-24279.940042488583,-31954.210335518164,-36023.56893105137,-35536.43501239241,-22356.81830129842,-31867.64202924276
14285.581026742582,5108.379436538153,-24244.400768804644,-31939.234666733108,-35840.172867795576,-35509.59056730158,-22205.809915758364,-31786.14756895871
14399.485516486826,5048.230892208921,-24305.219865467534,-32035.72714754667,-35634.58152229566,-35577.53987044572,-22078.248510151927,-31778.279754910443
14400.267827542762,5025.767389031338,-24350.236278800523,-32054.21204021121,-35793.12244571715,-35610.62045223957,-22215.35411064078,-31851.392311023752
14276.863846405013,5070.113250030667,-24307.61150212425,-31973.745760172103,-36023.21130314008,-35554.49522191229,-22367.94947003716,-31883.288250361475
14256.68022116187,5089.62632294015,-24261.23163237949,-31940.665178378247,-35895.24756613345,-35513.055087692155,-22255.386084960235,-31809.974528548068
14374.809190608168,5044.788723562804,-24299.76603982044,-32017.80104849351,-35649.95952248091,-35566.92279182944,-22093.29123417035,-31767.43915884962
14412.918914904467,5018.27955463881,-24349.945706122602,-32058.861203057913,-35742.16046835905,-35615.18020810845,-22185.000441670472,-31835.701386416127
14292.130087867987,5054.5117324008625,-24326.208153511066,-31993.81762669297,-36008.39209656621,-35573.0471698102,-22369.67055436022,-31897.950994724157
14240.922241320879,5089.335750262231,-24267.93715571608,-31942.028634790022,-35942.990892289985,-35515.290262137685,-22293.60756797881,-31837.511877717006
14351.630431608015,5057.082183013223,-24289.640699582185,-32002.020716908064,-35678.54740363925,-35560.61959989305,-22105.405879665122,-31779.53145259994
14423.75951096529,5022.816958763237,-24344.4471769866,-32060.82815656998,-35705.88358710809,-35618.37650756556,-22150.176423809102,-31828.52647644597
14323.914268483433,5052.701241099982,-24325.11291803276,-32011.47550481266,-35975.155052561175,-35576.534041945226,-22341.596763324353,-31889.16675915322
14242.665677388391,5093.694340431016,-24256.381303832688,-31942.386262701308,-35977.72550317353,-35511.15518941345,-22308.359719319313,-31839.232962040063
14333.681980810403,5070.537933175317,-24254.23553636498,-31986.061571366976,-35703.424895218006,-35537.41848914844,-22102.254283696926,-31762.544126813907
14416.785766695235,5018.145444172078,-24322.18483950911,-32069.21006074072,-35664.53285986577,-35622.15395237851,-22107.28342619937,-31809.236920981042
14337.906460512455,5035.512749613852,-24321.76015636446,-32032.709662045203,-35925.19890370356,-35594.37073402056,-22302.212989594103,-31890.619622542814
14242.844491344034,5092.19677355251,-24257.431835822088,-31952.13162328382,-36003.45236104159,-35526.063802965145,-22326.866963728306,-31866.636200742272
14315.957047457345,5091.481517729941,-24242.567925759307,-31968.94013511421,-35745.04384339379,-35525.61676807603,-22128.964618321017,-31775.999876976002
14419.020941140765,5034.641031580095,-24311.970092293035,-32056.178993723275,-35638.18015315296,-35600.450408512406,-22078.18145491856,-31796.63053710825
14370.160027761463,5042.307679928265,-24327.169278522644,-32046.612447096402,-35875.68978973506,-35606.12775160405,-22256.7048378831,-31887.26686087452
14256.34494499504,5092.710863674983,-24266.774865004405,-31965.14033855681,-36009.55438727789,-35537.0385094927,-22324.385920093766,-31881.74597999406
14291.213666345318,5092.263828785876,-24247.530013028387,-31967.442568235707,-35797.65984984158,-35533.37282340203,-22155.47378724501,-31805.0571447679
14405.431080511938,5039.737229315905,-24307.544446890886,-32057.989485024154,-35636.19084789644,-35594.013106109276,-22060.300059354315,-31799.58096737635
14380.710051144368,5028.7401710438935,-24340.647380429196,-32064.851470571935,-35835.121373548674,-35616.43190579795,-22224.272456678445,-31888.250337630554
14261.195273541842,5078.71867164596,-24287.47258037002,-31984.005210877087,-36026.51936131947,-35549.64489336549,-22334.690074287664,-31905.237663416585
14266.358526511018,5092.599104952706,-24251.88860319717,-31973.879870638833,-35854.58974296925,-35517.77130577222,-22187.77205798293,-31826.045432811432
14388.667272170458,5046.889787541603,-24302.09062124379,-32059.799976325034,-35642.71755727739,-35591.30854503019,-22057.84136746423,-31807.53818840244
14402.637112455024,5029.321316399732,-24343.32958976383,-32074.328610220986,-35788.920317759555,-35614.88963543053,-22184.598110270275,-31878.415570070218
14288.844381433057,5080.663273413572,-24290.110086215747,-31989.66020222428,-36009.71084948908,-35543.56521887365,-22322.03898692596,-31899.69443079167
14263.162227053908,5108.3347330492425,-24240.399806547142,-31958.27835300903,-35892.74417075446,-35505.09786666607,-22211.531962338922,-31834.67320617118
14373.021051051743,5062.625415638139,-24285.95266174706,-32040.57747609347,-35646.60676081262,-35562.85477433858,-22052.54400402832,-31797.52460688646
14404.112327589075,5023.3981041190755,-24351.286810789923,-32103.229415801696,-35740.93112241401,-35624.61264426859,-22150.33288602029,-31865.36215130832
14302.903628695445,5071.5884651647175,-24310.271359714432,-32021.377327606362,-35994.8469394263,-35565.93931507341,-22319.22266712459,-31908.545721595972
14252.925128093379,5108.53589874934,-24252.55915553083,-31967.75549265808,-35943.147354501176,-35502.81798873162,-22257.01776230547,-31853.269857557996
14363.879187569522,5082.294950758809,-24269.054742938846,-32024.61833055238,-35670.85840354662,-35538.26785543774,-22066.960879201997,-31781.967792745567
14428.006342411798,5036.362115903154,-24334.835926870815,-32095.6745261758,-35694.26067999133,-35592.4484839974,-22111.6196646237,-31829.15232529072
14336.36419014504,5071.320244231253,-24316.66395862865,-32038.521115603584,-35960.91699134314,-35559.23379173682,-22302.347100060833,-31903.337765137883
14253.34981123803,5112.469805773474,-24253.22970786449,-31967.08494032442,-35976.58556420631,-35493.25144210475,-22280.420038750177,-31860.914154161714
14328.898707496966,5081.467936213963,-24266.305478370843,-32016.348185103918,-35716.12068606862,-35523.336890141596,-22091.547798102834,-31783.10773171279
14421.099653375108,5034.439865879996,-24332.0419588139,-32094.35577325294,-35665.35987441062,-35588.71574267337,-22088.75383004592,-31818.267025740988
14355.653745609969,5058.155066747077,-24326.744595377993,-32053.7650053221,-35917.82282803331,-35569.895573842,-22275.323841014368,-31896.431076101195
14257.708401406813,5107.82064292677,-24258.95175444505,-31972.918745627256,-35998.75849470598,-35497.677087506905,-22306.23630359606,-31868.58080250988
14314.124204412008,5094.141375320122,-24254.66021950963,-32006.46871405467,-35756.57734353273,-35511.91514872493,-22122.594371151255,-31789.85795853829
14419.065644629676,5038.731400815416,-24320.731976119518,-32085.43742721527,-35642.1140601771,-35582.412550736975,-22071.90061472662,-31808.991051792033
14375.166818519452,5040.3630781606535,-24336.892287360704,-32070.417054941307,-35871.822937944286,-35588.58163220664,-22254.492015182022,-31897.056924945944
14260.457665974816,5094.096671831211,-24276.631984309195,-31992.14124585882,-36021.11023916129,-35521.369936629526,-22337.931077233683,-31900.163817425233
14289.470230277806,5094.320189275764,-24254.41435032062,-31994.488179026626,-35810.42269592556,-35510.75285801326,-22170.96354615254,-31816.300072228918
14403.352368277594,5036.093894969689,-24318.38504295171,-32085.01274407062,-35636.70493801891,-35579.64093442451,-22070.760675759397,-31803.157246489198
14389.13665880402,5029.768351288838,-24349.0963398333,-32092.43352322978,-35824.43723969904,-35603.13261784704,-22228.184011958125,-31883.802340483948
14269.8677503905,5083.077261814745,-24293.082868228303,-31996.745705216614,-36023.881855473745,-35530.46709662284,-22346.648257571254,-31898.062753446433
14271.678241691381,5102.970314379968,-24252.380341575186,-31973.321077027453,-35864.424510529585,-35495.30780259464,-22208.35801462627,-31817.954101318614
14399.597275209104,5059.898502814592,-24293.216978695033,-32043.326740661472,-35636.48142057436,-35560.26197198176,-22063.541062300334,-31785.43231313614
14416.22697308385,5035.266880424843,-24339.28392401742,-32080.765912624112,-35771.50830882887,-35593.297850286704,-22186.81093297135,-31866.412683297716
14295.393442558461,5079.6350931686275,-24300.48129564301,-32005.9546239322,-36013.8012187244,-35545.46511715235,-22345.977705237594,-31908.590425084883
14264.168055554397,5105.853689414703,-24246.658294994628,-31961.76522514406,-35904.63529880468,-35496.335982839584,-22238.666980107664,-31828.97351133508
14374.764487119257,5061.507828415373,-24286.779676291906,-32036.174182435774,-35656.12860395057,-35548.348492187084,-22075.342783372736,-31785.38760964723
14419.847955685611,5028.159025688055,-24342.279057774434,-32086.040924315566,-35726.491895495885,-35609.48051327235,-22156.457264001045,-31851.481718001574
14306.748128741758,5062.692470871505,-24316.731013862016,-32029.803935266013,-35989.70603820158,-35568.68857964141,-22336.209992910623,-31911.94318675318
14251.114636792498,5104.423177769563,-24254.079074153793,-31966.213222290662,-35950.45637493806,-35497.83354971809,-22279.570672460875,-31853.0686918579
14354.133826987008,5075.924703589047,-24274.195644163567,-32021.71260377319,-35686.1246450096,-35538.82664904912,-22095.168780704593,-31788.539205615427
14424.072435387665,5030.774179789327,-24335.77470013794,-32091.11477030692,-35689.63386888908,-35604.29490855872,-22128.472879943,-31842.004578352524
14332.944373243377,5058.602101636184,-24321.71545287555,-32045.38310115136,-35952.848011594775,-35572.75659713228,-22311.779536220973,-31909.70801230765
14244.431465200361,5102.433872513041,-24262.57273704681,-31979.400751519293,-35985.61566896625,-35513.2339016478,-22305.118716373294,-31873.31937233441
14325.344780128573,5082.451412969996,-24266.3278301153,-32013.755382747102,-35728.302386796764,-35542.44763165088,-22120.225086238992,-31805.794752334925
14418.573906251659,5027.711990798949,-24333.24895301449,-32097.17209305431,-35662.72236856489,-35607.848835927114,-22106.94815003254,-31835.67903467167
14349.618774607037,5039.6031188491725,-24340.401511240187,-32063.286848460062,-35920.281519923396,-35597.61173696658,-22300.46955352659,-31911.250282675064
14248.320668735585,5096.085977087734,-24271.938117973583,-31975.355085772884,-36013.73416349103,-35522.59928257457,-22333.50543183153,-31880.69544800466
14305.183506629886,5091.749738663404,-24259.063513167326,-31993.37059180386,-35769.18372740552,-35526.0861547096,-22144.23085978399,-31797.077571997354
14418.171574851463,5040.117208971645,-24323.123612776235,-32077.34609572245,-35639.521257820285,-35600.94214689042,-22083.434114865555,-31808.052278524912
14371.679946384425,5036.809150792259,-24347.464662488066,-32075.759121866125,-35870.72770246598,-35598.93048988944,-22266.629012421254,-31890.93254696519
14249.550014680626,5088.195811295011,-24291.1829699496,-31987.290917312017,-36032.42022185567,-35539.92188452743,-22360.23811820008,-31901.169645925722
14276.215645815808,5095.661293943083,-24263.355048102745,-31986.866234167366,-35830.67337640207,-35527.96370124385,-22199.10439242177,-31829.867581113293
14398.904371130988,5045.414572407552,-24317.356862706765,-32072.652229386837,-35645.735042778855,-35599.33282128964,-22089.111457957206,-31811.695612871124
14384.219275023852,5029.254261166366,-24352.560860223875,-32085.973869082198,-35827.14180077813,-35627.76424023679,-22239.695160352607,-31882.528291049995
14263.765724154202,5076.841125111714,-24300.90597878766,-32001.976013419157,-36034.18600966764,-35549.264913709754,-22366.988345025584,-31905.483532605595
14261.731715408769,5097.67295094406,-24255.80015847685,-31978.864309652367,-35877.52263278039,-35511.870445236025,-22231.849698048794,-31830.024043324476
14381.134734289019,5052.47772365543,-24299.117839231236,-32057.698912346237,-35644.259827644804,-35575.125882044544,-22081.489513097946,-31795.557653374395
14400.536048476226,5027.644935565583,-24349.76689216696,-32093.551110452547,-35773.56466931876,-35619.38233606605,-22199.506723821967,-31869.608982754828
14290.610169245027,5077.377566978642,-24304.07992650031,-32011.162580390286,-36014.449419313605,-35550.807184077166,-22353.733760563584,-31901.46021860364
14253.14864553793,5104.7584539363925,-24252.80502471984,-31969.051893836488,-35918.8286565338,-35511.713983024834,-22261.532814685444,-31836.72956666107
14365.421457936938,5060.166723748055,-24288.970147248525,-32040.421013882282,-35666.857441289125,-35566.56516391816,-22088.150332945628,-31787.913356770678
14423.223069098363,5035.132769958112,-24337.853412372282,-32090.891252862366,-35722.20036056046,-35610.933376661946,-22152.90333663265,-31848.8665639003
14315.800585246157,5070.225008752944,-24313.557066149362,-32026.361766619895,-35981.100616586285,-35567.28041974073,-22334.667722543207,-31909.55155009646
14247.9630408243,5107.038331870835,-24256.247193365954,-31959.440643720707,-35958.70416864206,-35513.09979118106,-22289.807771421405,-31854.365093036307
14348.389428661994,5079.568037935262,-24272.385152862687,-32012.503685057603,-35692.45018869045,-35542.44763165088,-22100.823772051786,-31780.559632844885
14429.302743590206,5039.133732215611,-24332.243124514,-32076.83200559998,-35683.88947056406,-35611.536873762234,-22124.04723454085,-31832.616845681292
14338.733475057303,5061.351366204187,-24324.375310465733,-32031.927350989266,-35951.57396216082,-35569.80616686418,-22314.484097300065,-31905.9305674947
14247.538357679648,5101.8750789016585,-24267.04308593787,-31965.43091123473,-35998.445570283606,-35509.16588415693,-22318.619170024296,-31870.279535088484
14322.170832415919,5079.7468518909045,-24270.3287923728,-32004.077077397953,-35738.427727035014,-35533.059898979656,-22127.37764446469,-31794.261252195985
14416.450490528405,5027.488473354397,-24338.926296106136,-32089.058409817033,-35664.823432543686,-35614.59906275261,-22104.601216864732,-31821.843304853835
14351.27280369673,5037.144426959089,-24346.883517132228,-32065.522022905592,-35917.331089655294,-35601.076257357156,-22295.418059279687,-31902.868378504325
14243.425636699872,5082.764337392371,-24280.70000180006,-31979.400751519293,-36022.898378717706,-35522.979262230314,-22346.804719782438,-31885.970459696113
14301.45076530585,5084.9101048600805,-24258.482367811488,-31987.8497109234,-35779.756102532876,-35530.534151856205,-22165.844996672273,-31803.470170911572
14413.053025371199,5026.929679743013,-24323.324778476333,-32075.40149395484,-35636.57082755218,-35594.28132704274,-22085.959861989006,-31807.67229886917
14375.166818519452,5019.732418028405,-24350.1468718227,-32074.082741031976,-35862.34579829524,-35604.40666728099,-22260.951669329606,-31896.095799934366
14268.72781142328,5085.200677538,-24280.52118784442,-31983.26760331006,-36022.18312289514,-35529.058936722155,-22354.33725766388,-31894.106494677842
14295.505201280737,5097.360026521686,-24247.32884732829,-31977.433798007227,-35825.44306819953,-35510.462285335336,-22195.595168542288,-31810.82389483737
14416.919877161967,5045.146351474089,-24301.084792743302,-32055.284923945062,-35628.92653094847,-35582.65841992598,-22072.95114671602,-31790.1038277273
14402.99474036631,5022.213461662944,-24346.212964798568,-32081.704685891236,-35809.193349980516,-35625.909045447,-22224.20540144508,-31883.109436405834
14276.930901638378,5065.709956372972,-24299.877798542715,-32007.38513557734,-36031.280282888445,-35564.017065050255,-22369.581147382396,-31930.02574801752
14265.933843366367,5087.547610705807,-24256.47071081051,-31979.467806752662,-35887.80443522983,-35527.18139018791,-22239.248125463502,-31856.175584337187
14386.901484358488,5041.61477585015,-24297.66497584164,-32054.279095444574,-35652.462917859906,-35580.646762925004,-22080.88601599765,-31803.29135695593
14413.27654281575,5019.441845350486,-24343.977790353038,-32089.10311330594,-35762.74642500239,-35624.72440299087,-22191.124819651228,-31876.180395624688
14301.182544372386,5067.788668607315,-24306.51626664594,-32018.67276652727,-36009.97907042254,-35580.98203909183,-22360.23811820008,-31925.26482644854
14260.591776441548,5100.981009123446,-24251.195699119056,-31968.09076882491,-35922.13671471318,-35523.06866920813,-22263.70093389761,-31851.839345912857
14366.673155626435,5056.433982424019,-24283.739839045986,-32033.06728995649,-35668.55617386773,-35568.04037905221,-22088.619719579186,-31792.607223106294
14424.005380154298,5019.531252328307,-24340.53562170692,-32088.991354583664,-35723.07207859422,-35618.04123139873,-22158.603031468756,-31848.06190109991
14320.159175414941,5052.85770331117,-24317.692138873594,-32032.508496345105,-35984.69924744359,-35581.42907398094,-22340.61328656832,-31908.724535551613
14250.935822836856,5090.989779351924,-24258.392960833666,-31969.70009442569,-35971.087035070304,-35513.09979118106,-22301.363623304802,-31849.87239240079
14350.065809496142,5065.888770328614,-24271.334620873287,-32016.728164759657,-35704.96716558542,-35553.601152134084,-22113.85483906923,-31779.37499038875
14431.359104080095,5017.676057538517,-24338.836889128317,-32080.207119012728,-35686.59403164316,-35608.56409174968,-22132.496193944957,-31823.76555487699
14350.848120552078,5042.352383417176,-24330.454984957574,-32040.264551671095,-35948.17649700362,-35581.11614955856,-22321.591952036855,-31902.622509315315
14259.273023518685,5094.499003231407,-24261.857481224237,-31964.46978622315,-35997.104465616285,-35514.88793073749,-22322.016635181506,-31869.698389732646
14332.944373243377,5080.082128057734,-24260.404617834643,-31995.449304038204,-35742.45104103697,-35529.41656463344,-22132.675007900598,-31786.371086403262
14429.258040101295,5020.4029703620645,-24332.62310416974,-32084.610412670427,-35660.73306330837,-35614.04026914123,-22109.76446983391,-31818.289377485442
14369.221254494341,5030.170682689033,-24342.1449473077,-32066.237278728164,-35906.781066272386,-35605.7030684594,-22300.424850037678,-31907.137561695286
14262.379915997974,5083.524296703851,-24275.08971394178,-31981.9488503872,-36020.81966648337,-35527.7848872882,-22350.269240173013,-31886.93158470769
14304.8258787186,5078.00341582339,-24257.588298033275,-31994.488179026626,-35786.3498671472,-35524.432125619904,-22165.48736876099,-31796.63053710825
14414.505888760792,5020.939412228991,-24323.503592431975,-32076.295563733052,-35645.19860091193,-35601.903271902,-22090.273748668882,-31801.927900544157
14386.096821558098,5018.8159965057375,-24350.3480375228,-32073.881575331878,-35861.138804094655,-35605.09957135911,-22264.773817631463,-31889.144407408767
14271.387669013462,5072.9966250654015,-24291.33943216079,-31987.67089696776,-36034.431878856645,-35537.61965484854,-22366.25073745856,-31899.761486025036
14280.753049940235,5077.62343616765,-24262.684495769085,-31981.65827770928,-35844.687920175544,-35517.63719530549,-22203.01594770145,-31813.461400683096
14402.905333388488,5027.667287310039,-24314.42878418312,-32055.351979178427,-35637.66606303049,-35586.32410601665,-22071.87826298216,-31786.348734658808
14405.341673534116,5011.104644668656,-24353.656095702183,-32081.59292716896,-35798.26334694187,-35622.891559945536,-22212.31427339486,-31869.54192752146
14280.171904584397,5053.125924244634,-24314.9875777945,-32016.415240337283,-36028.910997976185,-35564.55350691718,-22368.03887701498,-31916.145314710775
14264.212759043308,5079.679796657539,-24266.350181859754,-31978.506681741084,-35895.046400433355,-35519.134762183996,-22251.07219828036,-31841.088156829854
14382.721708145345,5036.1385984586,-24304.884589300706,-32044.064348228498,-35653.066414960194,-35581.67494316995,-22091.480742869466,-31794.01538300698
14416.092862617119,5012.624563291617,-24349.230450300034,-32078.933069578776,-35754.96801793194,-35618.08593488764,-22187.280319604914,-31861.78587219547
14307.262218864229,5060.837276081715,-24309.66786261414,-32007.072211154966,-36003.76528546397,-35570.05203605319,-22357.1759292097,-31909.55155009646
14256.121427550486,5092.174421808055,-24256.04602766586,-31960.535879199015,-35934.608988119246,-35519.04535520617,-22282.454047495612,-31843.792717908946
14362.359268946562,5055.875188812636,-24286.511455358443,-32025.601807308416,-35676.53574663827,-35563.70414062788,-22101.69549008554,-31783.934746257633
14425.167670865974,5022.526386085318,-24346.838813643317,-32085.951517337744,-35713.81845638972,-35625.260844857796,-22154.24444129997,-31844.463270242606
14331.133881942498,5061.95486330448,-24318.943836563092,-32017.19755139322,-35973.9927618495,-35577.361056490074,-22337.03700745547,-31907.048154717468
14258.267195018196,5103.260887057887,-24256.89539395516,-31956.579620430428,-35972.718712415546,-35512.898625480964,-22306.906855929716,-31861.02591288399
14347.718876328336,5074.851819855192,-24270.015867950424,-32005.52994078755,-35707.38115398659,-35550.60601837707,-22113.60896988022,-31787.57808060385
14431.627325013558,5021.319391884732,-24337.04874957189,-32078.418979456306,-35679.73204609538,-35629.48532455985,-22121.879115328684,-31825.978377578067
14353.977364775821,5039.558415360262,-24332.824269869838,-32039.281074915063,-35943.52733415691,-35592.58259446414,-22317.434527568166,-31908.992756485077
14262.40226774243,5094.811927653781,-24259.08586491178,-31950.56700117195,-36001.373648807246,-35512.67510803641,-22324.296513115947,-31862.9705146516
14330.30686739765,5081.847915869703,-24252.447396808555,-31978.95371663019,-35746.85433469467,-35522.26400640774,-22129.00932180993,-31767.86384199427
14432.789615725234,5029.544833844285,-24319.72614761903,-32063.555069393526,-35652.70878704891,-35591.73322817484,-22093.402992892625,-31794.507121384995
14377.93843483191,5037.032668236812,-24336.847583871793,-32044.936066262257,-35896.81218824532,-35595.533024732234,-22283.996317863028,-31879.26493635952
14270.15832306842,5091.481517729941,-24270.3287923728,-31958.121890797844,-36020.12676240525,-35521.571102329624,-22342.6249435693,-31865.67507573069
14306.703425252847,5083.81486938177,-24253.676742753596,-31968.51545196956,-35791.714285816466,-35523.44864886387,-22161.776979181406,-31784.67235382466
14410.795499181211,5019.844176750681,-24324.86704884375,-32066.505499661627,-35643.11988867759,-35597.58938522213,-22081.80243752032,-31787.600432348307
14393.808173395179,5023.465159352441,-24346.548240965396,-32062.281019959573,-35846.96779810999,-35610.32987956165,-22251.92156456966,-31868.916078676713
14276.260349304719,5076.259979755876,-24289.57364434882,-31973.790463661015,-36031.86142824429,-35538.580779860116,-22365.13315023579,-31886.663363774227
14279.501352250738,5086.0276920828455,-24257.320077099812,-31965.90029786829,-35851.57225746778,-35515.55848307115,-22212.6942530506,-31806.73352560205
14398.680853686436,5034.931604258014,-24310.070194014337,-32050.322836675983,-35645.93620847895,-35588.08989382862,-22082.540045087346,-31785.81229279188
14407.398034024005,5017.5866505606955,-24347.44231074361,-32069.075950273986,-35797.36927716366,-35621.14812387802,-22212.582494328322,-31860.73534020607
14286.989186643266,5063.363023205165,-24301.956510777058,-31990.75543770259,-36028.68748053163,-35551.52243989974,-22363.456769401644,-31891.73720976558
14264.793904399146,5090.229820040443,-24251.240402607968,-31955.95377158568,-35900.00848770243,-35504.6284800325,-22242.01974177596,-31809.57219714787
14380.352423233084,5045.012241007357,-24291.674708327617,-32032.307330645006,-35653.424042871484,-35559.72553011483,-22076.773295017876,-31767.685028038628
14416.22697308385,5014.636220292595,-24345.43065374263,-32079.804787612535,-35746.29554108328,-35615.71664997538,-22175.00921189895,-31842.473964986082
14300.73550948328,5050.466066654452,-24314.093508016293,-32012.43662982424,-36002.915919174666,-35567.369826718554,-22348.794025038962,-31898.442733102172
14248.968869324788,5085.424194982552,-24260.33756260128,-31965.252097279084,-35945.11430801324,-35514.70911678185,-22278.251919538012,-31838.137726561756
14357.039553766199,5055.316395201254,-24282.644603567674,-32024.37246136337,-35676.8710228051,-35558.5408876587,-22091.503094613923,-31774.926993242145
14418.819775440666,5011.685790024494,-24347.509365976974,-32081.257651002128,-35704.810703374234,-35617.773010465266,-22141.436891727077,-31832.147459047734
14324.02602720571,5043.849950295681,-24324.91175233266,-32024.81949625248,-35967.57781119082,-35573.67301865495,-22333.661894042718,-31900.588500569884
14242.822139599579,5083.546648448307,-24265.32200161481,-31956.46786170815,-35979.64775319669,-35512.54099756968,-22316.13812638976,-31852.487546502063
14327.825823763113,5060.323185959242,-24277.727219787506,-32005.552292532004,-35719.54050297028,-35543.45346015137,-22128.472879943,-31779.844377022313
14409.879077658545,5008.534194056296,-24346.280020031933,-32087.203215027243,-35677.340409438664,-35617.28127208725,-22126.304760730836,-31819.742240875035
14339.828710535612,5035.378639147119,-24339.395682739698,-32040.599827837927,-35937.5817701318,-35600.718629445866,-22318.865039213306,-31899.69443079167
14243.157415766409,5085.267732771365,-24275.022658708414,-31962.346370499894,-36009.04029715542,-35530.33298615611,-22341.775577279997,-31867.530270520485
14301.07078565011,5067.453392440485,-24269.680591783595,-31984.8992806553,-35762.05352092427,-35525.32619539812,-22152.09867383226,-31781.43135087864
14411.846031170611,5018.547775572273,-24328.37627272323,-32066.997238039643,-35651.23357191486,-35599.64574571201,-22096.93456851656,-31798.642194109227
14360.302908456673,5021.364095373642,-24347.576421210342,-32060.314066447507,-35886.373923584695,-35618.37650756556,-22282.16347481769,-31887.468026574617
14248.72300013578,5077.221104767455,-24283.739839045986,-31978.551385229992,-36028.12868692025,-35543.676977595926,-22357.62296409881,-31878.326163092395
14286.989186643266,5081.065604813767,-24258.571774789307,-31978.506681741084,-35807.60637612419,-35523.76157328625,-22180.61949975723,-31790.819083549868
14402.100670588097,5025.812092520248,-24318.3403394628,-32062.660999615313,-35637.86722873059,-35593.320202031166,-22082.18241717606,-31788.181577704145
14389.740155904312,5027.220252420932,-24339.28392401742,-32062.929220548776,-35831.79096362483,-35610.508693517295,-22242.01974177596,-31870.368942066307
14271.588834713559,5078.405747223585,-24283.3822111347,-31972.248193293595,-36025.66999503017,-35547.05209100868,-22358.38292341029,-31884.45054107315
14272.460552747316,5089.559267706784,-24250.167518874114,-31956.870193108345,-35856.75786218141,-35522.10754419655,-22216.225828674535,-31804.453647667608
14389.203714037385,5040.161912460556,-24302.67176659963,-32041.471545871682,-35646.18207766797,-35586.033533338734,-22083.65763231011,-31783.778284046446
14398.591446708615,5017.497243582874,-24346.324723520844,-32075.177976510287,-35789.88144277113,-35625.48436230235,-22212.806011772875,-31860.44476752815
14277.467343505305,5058.758563847371,-24302.24708345498,-31996.0528011385,-36022.56310255088,-35566.63221915153,-22364.172025224212,-31894.665288289227
14255.741447894747,5089.000474095402,-24247.440606050564,-31945.60491390287,-35905.663479049625,-35510.194064401876,-22249.68639012413,-31816.009499551
14365.823789337133,5041.905348528069,-24288.94779550407,-32023.0090049516,-35658.78846154075,-35576.4446349674,-22083.076486954273,-31766.969772216056
14406.168688078964,5011.5963830466735,-24346.05650258738,-32078.173110267297,-35745.937913172,-35628.50184780382,-22177.557310766853,-31842.563371963905
14309.363282843029,5067.6545581405835,-24300.101315987267,-31992.923556914757,-35989.52722424593,-35563.27945748323,-22341.485004602077,-31887.155102152243
14250.198215269831,5102.076244601756,-24244.55723101583,-31931.94799804068,-35939.280502710404,-35502.0803811646,-22277.380201504257,-31825.553694433416
14349.685829840402,5065.642901139606,-24275.603804064252,-32003.585339019937,-35681.676647862994,-35550.47190791034,-22098.834466795262,-31762.76764425846
14415.601124239103,5015.75380751536,-24343.597810697298,-32071.8699183309,-35705.81653187472,-35622.600987267615,-22145.370798751213,-31821.172752520175
14330.59744007557,5053.550607389285,-24318.29563597389,-32011.967243190677,-35967.35429374627,-35571.348437231594,-22328.252771884534,-31889.099703919856
14250.891119347945,5104.065549858278,-24251.620382263707,-31931.210390473654,-35985.72742768854,-35510.261119635245,-22314.327635088877,-31847.368997021797
14333.92784999941,5078.383395479131,-24263.62326903621,-31979.870138152855,-35727.944758885475,-35536.01032924776,-22126.483574686477,-31772.088321696323
14427.983990667342,5028.918984999536,-24329.471508201543,-32059.218830969196,-35677.18394722747,-35611.626280740056,-22114.212466980516,-31805.548883145915
14358.715934600346,5048.85674105367,-24327.57160992284,-32023.366632862882,-35928.238740949484,-35590.66034444098,-22301.207161093615,-31882.1259596498
14247.739523379747,5095.3036660317985,-24268.13832141618,-31948.443585448695,-36014.158846635684,-35517.83836100559,-22338.378112122788,-31857.11435760431
14304.669416507413,5086.832354883237,-24259.219975378513,-31969.52128047005,-35770.100148928184,-35530.33298615611,-22151.67399068761,-31777.408036876684
14413.500060260303,5029.097798955178,-24325.62700815523,-32054.703778589224,-35650.65242655903,-35605.45719927039,-22089.871417268685,-31796.0046882635
14370.562359161659,5029.433075122008,-24336.557011193876,-32036.77767953607,-35875.24275484595,-35605.14427484802,-22266.91958509917,-31882.572994538903
14254.959136838812,5082.406709481086,-24274.217995908024,-31952.913934339755,-36020.104410660795,-35524.45447736436,-22345.46361511512,-31869.0725408879
14277.936730138867,5077.936360590024,-24252.31328634182,-31955.663198907758,-35809.21570172497,-35521.54875058517,-22174.025735142917,-31781.319592156364
14394.478725728837,5024.180415175011,-24309.33258644731,-32039.14696444833,-35634.35800485111,-35576.265821011766,-22065.150387901114,-31768.400283861196
14376.686737142414,5010.769368501827,-24345.274191531444,-32056.067235001,-35829.13110603465,-35610.28517607274,-22227.155831713182,-31861.607058239828
14257.596642684537,5061.865456326658,-24289.730106560008,-31969.7447979146,-36027.41343109768,-35547.297960197684,-22352.102083218346,-31879.108474148332
14260.792942141647,5080.909142602581,-24247.41825430611,-31947.661274392758,-35863.32927505127,-35508.584738801095,-22206.145191925192,-31784.38178114674
14382.028804067231,5036.4291711365195,-24294.200455451068,-32028.86516199889,-35638.49307757534,-35563.61473365006,-22058.221347119972,-31748.686045251616
14396.266865285263,5011.909307469047,-24342.97196185255,-32064.695008360748,-35774.928125730534,-35607.401801038,-22184.240482358993,-31832.840363125848
14281.177733084885,5060.189075492511,-24297.95554851956,-31975.71271368417,-36012.84009371282,-35560.88782082651,-22344.41308312572,-31881.343648593862
14249.170035024887,5091.570924707762,-24245.004265904936,-31929.913989295244,-35906.26697614991,-35502.54976779816,-22241.46094816458,-31805.124200001264
14364.46033292536,5052.321261444243,-24280.923519244614,-32003.831208208947,-35656.977970239874,-35555.1434225015,-22073.867568238686,-31754.452795321085
14408.403862524494,5014.837385992692,-24339.395682739698,-32063.331551948973,-35730.7834304313,-35616.297795331215,-22153.95386862205,-31819.67518564167
14301.428413561394,5049.884921298614,-24311.321891703832,-31999.450266295706,-35996.27745107144,-35568.08508254112,-22337.640504555762,-31886.46219807413
14243.895023333434,5090.274523529354,-24246.524184527898,-31939.27937022202,-35955.55257267387,-35509.970546957324,-22276.77670440396,-31825.531342688962
14351.809245563656,5066.492267428907,-24259.89052771217,-31988.453208023693,-35682.9730490414,-35550.583666632614,-22085.84810326673,-31755.123347654742
14422.217240597874,5022.794607018782,-24326.789298866905,-32061.945743792745,-35689.81268284472,-35615.403725553006,-22121.722653117497,-31813.595511149826
14327.334085385095,5046.956842774969,-24316.731013862016,-32012.30251935751,-35958.12302328623,-35576.37757973404,-22315.691091500652,-31888.16093065273
14243.336229722052,5093.67198868656,-24254.41435032062,-31937.804155087968,-35990.57775623533,-35518.75478252826,-22308.27031234149,-31844.463270242606
14321.902611482456,5069.643863397106,-24261.2763358684,-31972.98580086062,-35732.61627347663,-35536.85969553706,-22120.649769383643,-31767.640324549717
14422.686627231435,5024.1357116861,-24320.843734841794,-32040.063385971,-35664.91283952151,-35598.3046410447,-22102.209580208015,-31789.701496327103
14357.21836772184,5041.637127594606,-24324.084737787813,-32010.693193756724,-35917.24168267747,-35589.83332989614,-22289.18192257666,-31870.45834904413
14251.67343040388,5092.308532274787,-24260.672838768107,-31931.27744570702,-36013.08596290183,-35524.588587831095,-22333.170155664702,-31852.889877902257
14305.094099652064,5085.96063684948,-24249.318152584812,-31953.159803528764,-35778.37029437665,-35536.41266064795,-22155.317325033826,-31773.094150196812
14416.04815912821,5036.764447303349,-24312.595941137784,-32037.001196980622,-35650.92064749249,-35589.83332989614,-22089.156161446117,-31779.777321788948
14380.844161611101,5044.520502629341,-24325.694063388597,-32023.478391585162,-35866.8161471863,-35590.83915839662,-22254.112035526283,-31853.471023258095
14260.949404352834,5093.962561364479,-24266.618402793218,-31947.70597788167,-36022.6525095287,-35527.82959077711,-22341.283838901978,-31854.00746512502
14283.904645908433,5098.231744555444,-24239.103405368736,-31944.040291791,-35820.32451871926,-35511.89279698048,-22177.5349590224,-31770.970734473558
14397.093879830109,5038.239662437399,-24302.76117357745,-32028.887513743346,-35643.209295655404,-35582.01021933678,-22074.582824061254,-31763.70641752558
14386.588559936114,5021.118226184634,-24341.027360084936,-32054.837889055958,-35826.8065246113,-35621.52810353376,-22228.943971269604,-31857.427282026685
14274.315747537106,5081.713805402971,-24278.263661654433,-31964.46978622315,-36023.43482058463,-35551.58949513311,-22347.072940715905,-31874.191090368164
14265.643270688448,5096.465956743474,-24236.152975100635,-31942.006283045564,-35868.716045465,-35508.07064867862,-22208.78269777092,-31789.366220160275
14387.102650058587,5052.678889355528,-24281.2811471559,-32025.37828986386,-35643.11988867759,-35578.36688499056,-22067.11734141318,-31760.8453942353
14409.633208469537,5028.986040232902,-24326.811650611362,-32060.671694358793,-35760.73476800141,-35613.861455185586,-22164.660354216143,-31832.840363125848
14289.537285511171,5073.57777042124,-24287.29376641438,-31989.99547839111,-36002.491236030015,-35565.78285286223,-22322.016635181506,-31880.11430264882
14250.421732714383,5102.657389957594,-24236.309437311822,-31950.209373260663,-35910.51380759643,-35511.42341034691,-22232.20732596008,-31815.1601332617
14359.230024722818,5057.417459180053,-24273.56979531882,-32014.53769380304,-35657.17913593997,-35560.32902721513,-22057.059056408296,-31762.074740180346
14407.845068913111,5018.391313361087,-24334.210078026066,-32070.64057238586,-35720.14400007058,-35613.637937741034,-22128.24936249845,-31825.0619560554
14305.652893263448,5054.019994022846,-24307.94677829108,-32012.794257735524,-35981.5923549643,-35565.961666817864,-22310.304321086922,-31887.31156436343
14232.562688894594,5087.748776405904,-24256.068379410313,-31954.255039007076,-35959.709997142556,-35504.98610794379,-22266.181977532146,-31836.617807938794
14329.16692843043,5062.357194704676,-24271.491083084475,-32001.61838550787,-35693.29955497975,-35537.798468804176,-22074.26989963888,-31764.354618114787
14404.537010733726,5011.395217346575,-24339.552144950885,-32083.78339812558,-35688.382171199584,-35615.403725553006,-22101.606083107723,-31817.283548984953
14317.611076547037,5035.468046124941,-24329.516211690454,-32037.247066169628,-35955.93255232961,-35591.17443456345,-22292.26646331149,-31894.017087700024
14228.315857448086,5086.944113605513,-24265.545519059364,-31967.88960312481,-35997.35033480529,-35513.882102237,-22291.79707667793,-31858.053130871434
14305.36232058553,5068.459220940974,-24268.160673160633,-32012.369574590874,-35739.43355553551,-35536.90439902597,-22102.678966841577,-31788.226281193052
14404.894638645012,5014.703275525961,-24334.880630359727,-32094.601642441947,-35662.7670720538,-35614.28613833024,-22077.89088224064,-31817.01532805149
14350.155216473964,5032.294098412287,-24334.634761170717,-32063.040979271052,-35906.848121505755,-35597.58938522213,-22261.5551664299,-31893.480645833093
14250.86876760349,5091.190945052022,-24264.204414392047,-31975.310382283973,-36010.69432624511,-35514.21737840383,-22305.18577160666,-31874.34755257935
14301.517820539215,5089.112232817678,-24249.452263051542,-31995.09167612692,-35780.538413588816,-35528.67895706641,-22132.987932322972,-31796.116446985776
14408.336807291129,5031.176511189522,-24315.546371405886,-32082.59875566945,-35643.6116270556,-35584.625373438044,-22060.858852965695,-31800.76560983248
14368.215425993852,5024.292173897287,-24342.1449473077,-32087.11380804942,-35865.318580307794,-35602.126789346556,-22238.666980107664,-31892.65363128825
14256.076724061577,5084.396014737608,-24276.31905988682,-31995.695173227214,-36026.27349213046,-35536.122087970034,-22331.382016108277,-31902.711916293138
14274.427506259384,5090.676854929549,-24244.84780369375,-31987.24621382311,-35828.75112637891,-35506.46132307784,-22167.521377506422,-31809.482790170052
14391.193019293907,5034.685735069005,-24300.078964242814,-32077.122578277897,-35635.743813007335,-35577.6963326569,-22050.241774349426,-31783.95709800209
14396.043347840709,5028.918984999536,-24326.834002355816,-32083.850453358944,-35801.03496325433,-35599.601042223105,-22189.470790561532,-31858.768386694002
14278.786096428168,5078.226933267943,-24274.866196497227,-31999.696135484715,-36013.532997790935,-35524.47682910882,-22325.414100338712,-31884.964631195624
14258.133084551464,5088.195811295011,-24240.4221582916,-31980.697152697703,-35874.37103681219,-35498.79467472967,-22202.703023279075,-31813.751973361013
14383.66048141247,5047.806209064271,-24278.442475610078,-32053.183859966262,-35636.48142057436,-35555.56810564615,-22047.134881870137,-31773.407074619186
14411.019016625765,5019.397141861576,-24325.783470366416,-32092.902909863344,-35747.41312830605,-35600.53981549023,-22153.797406410864,-31845.692616187647
14293.359433813028,5062.133677260123,-24288.321946659322,-32017.398717093318,-35996.29980281589,-35548.79552707619,-22324.788251493963,-31894.754695267045
14253.550976938126,5101.5845062237395,-24228.575733730286,-31962.27931526653,-35913.911272753634,-35498.45939856284,-22243.204384232093,-31829.9122846022
14361.956937546365,5064.234741238921,-24260.51637655692,-32032.53084808956,-35652.68643530446,-35544.8392683076,-22058.578975031254,-31772.87063275226
14420.697321974912,5026.370886131631,-24323.794165109895,-32091.38299124038,-35702.7766946288,-35606.37362079306,-22120.269789727903,-31826.69363340064
14320.472099837316,5060.099668514689,-24300.123667731725,-32029.9603974772,-35965.61085767876,-35547.454422408875,-22307.309187329913,-31884.78581723998
14248.275965246674,5099.505793989396,-24241.338579814266,-31966.213222290662,-35955.79844186288,-35491.1280263815,-22273.088666568838,-31837.668339928194
14339.605193091058,5068.1462965186,-24259.309382356332,-32018.985690949645,-35692.360781712625,-35529.66243382245,-22085.579882333266,-31770.99308621801
14412.628342226548,5009.048284178768,-24326.923409333638,-32096.099209320455,-35678.72621759489,-35601.23271956834,-22106.679929099075,-31818.57995016336
14331.290344153686,5026.080313453712,-24318.452098185076,-32049.9652087647,-35942.230932978506,-35577.40575997898,-22299.374318048278,-31895.626413300804
14243.090360533042,5078.025767567846,-24249.318152584812,-31974.528071228036,-35993.43877952561,-35507.08717192259,-22303.73290821706,-31857.74020644906
14311.106718910542,5062.647767382595,-24249.340504329266,-32002.981841919645,-35735.25377932236,-35517.27956739421,-22111.530257645878,-31778.32445839935
14411.242534070318,5010.344685357176,-24316.41808943964,-32083.269308003106,-35646.58440906816,-35595.57772822115,-22081.154236931114,-31807.29231921343
14357.285422955207,5026.035609964802,-24321.871915086736,-32061.16343273681,-35888.96672594151,-35590.90621362999,-22268.97594558906,-31891.60309929885
14245.705514634314,5077.221104767455,-24263.958545203037,-31983.91580389927,-36012.214244868075,-35530.400041389476,-22332.119623675302,-31882.34947709435
14289.760802955725,5076.014110566868,-24246.635943250174,-31993.728219715147,-35784.60643107968,-35521.884026752,-22152.568060465823,-31796.0046882635
14406.772185179256,5027.443769865486,-24306.672728857127,-32072.62987764238,-35633.0616036727,-35586.391161250016,-22067.854948980206,-31796.04939175241
14379.838333110612,5026.750865787371,-24331.304351246876,-32072.473415431192,-35844.88908587564,-35589.6992194294,-22239.40458767469,-31879.153177637243
14260.949404352834,5078.0481193123005,-24274.620327308217,-31987.62619347885,-36025.46882933007,-35521.101715696066,-22345.620077326308,-31888.093875419367
14279.501352250738,5093.493174730918,-24239.99747514695,-31974.528071228036,-35836.708347405,-35500.76162824174,-22186.16273238215,-31800.13976098773
14398.077356586142,5041.547720616784,-24296.435629896598,-32061.7669298371,-35637.95663570841,-35569.87322209754,-22065.619774534676,-31782.43717937913
14396.736251918825,5020.559432573251,-24337.942819350104,-32086.77853188259,-35795.134102718126,-35606.91006265999,-22204.20059015758,-31864.088101874368
14279.210779572819,5070.627340153139,-24286.75732454745,-32001.126647129855,-36013.957680935586,-35538.17844845992,-22342.4237778692,-31889.9267184647
14266.425581744383,5094.610761953683,-24242.724387970495,-31968.671914180748,-35885.07752240628,-35501.67804976441,-22227.938142769115,-31818.468191441083
14385.18040003543,5050.130790487622,-24285.43857162459,-32045.20428719572,-35643.29870263323,-35572.86835585455,-22072.057076937806,-31784.895871269215
14410.884906159034,5013.585688303196,-24342.81549964136,-32097.239148287674,-35748.10603238417,-35617.10245813161,-22175.545653765876,-31858.857793671825
14296.131050125487,5053.103572500178,-24307.85737131326,-32021.980824706654,-36003.519416274954,-35550.00252127678,-22349.084597716883,-31899.873244747312
14251.695782148336,5086.988817094424,-24248.021751406402,-31957.65250416428,-35930.56332237284,-35498.79467472967,-22269.959422345095,-31832.952121848124
14361.17462649043,5051.38248817712,-24274.307402885843,-32030.318025388486,-35667.751511067334,-35545.86744855255,-22086.876283511672,-31775.552842086894
14428.073397645165,5018.503072083363,-24329.136232034714,-32083.068142303007,-35701.48029345039,-35612.63210924055,-22139.805214381842,-31833.354453248317
14327.423492362917,5047.269767197343,-24310.025490525426,-32023.836019496444,-35967.6895699131,-35565.0452452952,-22331.22555389709,-31899.627375558302
14256.143779294942,5094.767224164871,-24245.51835602741,-31958.23364952012,-35965.722616401035,-35493.474959549305,-22299.55313200392,-31836.68486317216
14349.954050773866,5073.309549487776,-24251.061588652326,-32001.439571552226,-35695.26650849182,-35520.65468080696,-22101.76254531891,-31749.781280729927
14430.040351157231,5020.80530176226,-24319.748499363483,-32080.58709866847,-35666.18688895546,-35604.94310914792,-22113.027824524383,-31805.995918035023
14350.848120552078,5042.7100113284605,-24313.087679515804,-32041.91858076079,-35927.6799473381,-35575.46115821137,-22308.873809441782,-31892.363058610328
14245.593755912038,5082.9207996035575,-24260.27050736791,-31977.76907417406,-36002.42418079665,-35522.24165466329,-22330.934981219172,-31870.324238577396
14321.030893448698,5078.606912923684,-24250.502795040942,-32000.277280840553,-35744.239180593395,-35524.67799480892,-22132.429138711588,-31778.39151363272
14427.358141822595,5031.064752467246,-24313.53471440491,-32072.004028797634,-35642.62815029957,-35588.201652550895,-22086.920987000583,-31788.8521300378
14374.719783630346,5041.391258405597,-24323.99533080999,-32054.21204021121,-35881.3671328267,-35589.36394326257,-22272.21694853508,-31873.87816594579
14262.782247398169,5091.325055518753,-24259.197623634056,-31974.438664250218,-36007.520378532456,-35511.28929988018,-22337.70755978913,-31864.892764674758
14298.567390271115,5084.865401371169,-24242.187946103568,-31986.843882422912,-35787.6462683256,-35513.546826070175,-22170.829435685806,-31785.611127091783
14407.666254957468,5024.940374486491,-24306.62802536822,-32069.120653762897,-35634.15683915101,-35594.86247239858,-22086.295138155838,-31787.24280443702
14387.773202392245,5023.286345396798,-24329.516211690454,-32064.315028705005,-35830.025175812865,-35598.394048022514,-22242.578535387343,-31869.050189143443
14275.232169059775,5079.9256658465465,-24266.88662372668,-31973.209318305177,-36012.03543091243,-35528.567198344135,-22350.157481450737,-31879.30963984843
14284.39638428645,5089.179288051044,-24232.777861687882,-31961.31819025495,-35833.33323399225,-35507.7800760007,-22201.361918611758,-31797.278737697452
14403.665292699969,5038.7761043043265,-24290.28890017139,-32049.71933957569,-35629.0606414152,-35585.49709147181,-22073.88991998314,-31776.603374076294
14402.413595010472,5015.083255181701,-24341.362636251764,-32082.10701729143,-35795.24586144041,-35627.8089437257,-22218.751575797985,-31870.123072877297
14288.978491899788,5073.466011698963,-24288.14313270368,-31994.018792393064,-36018.18216063764,-35547.25325670878,-22360.3275251779,-31899.873244747312
14272.840532403057,5106.434834770541,-24234.811870433317,-31954.858536107367,-35891.00073468694,-35504.31555561013,-22240.790395830918,-31817.976453063067
14386.56620819166,5061.820752837748,-24278.04014420988,-32034.743670790634,-35647.701996290925,-35574.008294821775,-22079.969594474984,-31776.402208376196
14416.249324828306,5022.995772718879,-24336.37819723823,-32082.911680091824,-35744.61916024914,-35607.87118767157,-22176.797351455374,-31847.033720854968
14308.536268298181,5066.827543595737,-24295.04982174037,-32010.17910363425,-35989.281355056926,-35554.33875970111,-22339.607458067832,-31888.183282397185
14255.137950794453,5098.790538166826,-24240.690379225063,-31964.13451005632,-35934.34076718578,-35509.25529113475,-22277.335498015345,-31832.974473592578
14359.945280545388,5059.853799325681,-24266.573699304307,-32024.61833055238,-35675.12758673759,-35546.470945652836,-22099.19209470655,-31776.402208376196
14421.747853964313,5016.46906333793,-24326.565781422352,-32087.002049327144,-35701.01090681683,-35608.8546644276,-22143.895583617163,-31829.129973546267
14332.69850405437,5057.216293479954,-24297.95554851956,-32021.802010751013,-35958.57005817533,-35567.95097207439,-22328.40923409572,-31889.725552764605
14255.674392661382,5104.110253347189,-24236.242382078457,-31951.304608738974,-35965.05206406737,-35502.32625035361,-22296.915626158196,-31846.58668596586
14337.817053534634,5076.282331500332,-24249.385207818177,-31999.249100595607,-35704.54248244077,-35533.663396079945,-22105.897618043142,-31775.441083364618
14425.234726099341,5028.7401710438935,-24312.417127182143,-32076.25086024414,-35663.79525229875,-35605.16662659247,-22106.344652932246,-31804.49835115652
14351.898652541478,5048.633223609117,-24308.505571902464,-32030.653301555314,-35917.30873791084,-35585.273574027255,-22291.17122783318,-31884.718762006614
14254.847378116534,5100.86925040117,-24243.12671937069,-31949.784690116012,-35992.567061491856,-35500.31459335263,-22314.88642870026,-31849.425357511685
14317.342855613573,5087.659369428083,-24232.397882032143,-31972.80698690498,-35740.12645961362,-35507.84713123407,-22123.220219996005,-31758.073777922844
14421.032598141743,5032.584671090206,-24298.983728764502,-32064.225621727186,-35634.51446706229,-35589.94508861841,-22074.783989761352,-31775.61989732026
14373.691603385401,5037.457351381463,-24311.880685315216,-32046.455984885215,-35868.403121042626,-35590.32506827415,-22256.414265205178,-31863.551660007437
14261.664660175404,5090.565096207273,-24251.620382263707,-31959.954733843177,-36010.537864033926,-35514.239730148285,-22336.679379544184,-31861.428244284183
14287.25740757673,5084.753642648893,-24239.148108857647,-31971.599992704392,-35802.93486153303,-35505.991936444276,-22174.07043863183,-31784.71705731357
14403.352368277594,5031.444732122985,-24295.742725818483,-32053.116804732897,-35631.966368194386,-35576.57874543414,-22074.851044994717,-31772.535356585428
14385.538027946715,5025.94620298698,-24324.598827910286,-32057.385987923863,-35825.42071645507,-35603.84787366961,-22237.080006251337,-31859.081311116377
14271.9688143693,5081.155011791589,-24270.127626672704,-31973.99162936111,-36019.88089321624,-35535.25036993627,-22354.56077510843,-31876.627430513792
14278.003785372233,5096.376549765653,-24233.962504144016,-31958.010132075568,-35849.06886208879,-35497.61003227354,-22206.68163379212,-31790.260289938487
14398.36792926406,5048.7002788424825,-24285.43857162459,-32041.29273191604,-35635.00620544031,-35567.90626858548,-22072.615870549187,-31765.67337103765
14407.666254957468,5024.918022742036,-24332.243124514,-32066.39374093935,-35778.571460076746,-35612.185074351444,-22201.853656989773,-31845.96083712111
14284.39638428645,5066.089936028711,-24292.99346125048,-31999.249100595607,-36019.43385832714,-35546.76151833076,-22359.008772255038,-31889.16675915322
14258.982450840766,5100.109291089689,-24236.376492545187,-31957.630152419824,-35905.328202882796,-35489.07166589161,-22246.311276711378,-31804.87833081226
14377.401992964984,5064.972348805946,-24265.769036503916,-32021.511438073092,-35649.937170736455,-35537.50789612626,-22071.990021704438,-31747.32258883984
14422.574868509158,5037.3679444036425,-24317.602731895775,-32063.152737993332,-35725.88839839559,-35589.4980537293,-22152.72452267701,-31814.623691394772
14310.391463087972,5072.795459365304,-24289.461885626544,-31997.23744359463,-35982.82170090934,-35549.77900383223,-22332.94663822015,-31874.392256068262
14254.333287994063,5109.362913294186,-24231.213239576013,-31940.821640589435,-35937.894694554176,-35500.962793941835,-22275.61441369229,-31819.63048215276
14350.423437407428,5066.29110172881,-24263.869138225215,-32014.67180426977,-35680.8719850626,-35544.101660740576,-22096.12990571617,-31760.644228535206
14419.155051607497,5020.715894784438,-24330.164412279657,-32082.308182991528,-35700.8767963501,-35603.579652736145,-22134.61960966821,-31812.522627415972
14329.993942975278,5054.355270189675,-24309.91373180315,-32022.360804362394,-35964.89560185619,-35572.22015526535,-22323.335388104366,-31879.35434333734
14252.34398273754,5102.925610891058,-24243.70786472653,-31949.583524415917,-35982.352314275784,-35510.037602190685,-22308.784402463963,-31842.87629638628
14337.727646556814,5080.104479802189,-24249.98870491847,-31996.209263349687,-35719.02641284781,-35542.827611306624,-22117.006435037427,-31775.798711275904
14428.363970323084,5029.053095466268,-24314.58524639431,-32070.64057238586,-35662.230630186874,-35602.260899813286,-22105.785859320862,-31801.369106932776
14357.17366423293,5045.61573810765,-24315.85929582826,-32034.318987645984,-35921.08618272378,-35585.18416704943,-22301.564789004897,-31879.600212526348
14254.400343227428,5095.393073009619,-24248.491138039964,-31956.37845473033,-36004.12291337525,-35512.16101791394,-22332.812527753416,-31846.45257549913
14311.486698566283,5086.6758926720495,-24237.672893723597,-31972.404655504783,-35756.55499178827,-35505.276680621704,-22138.32999924779,-31749.62481851874
14422.016074897776,5035.110418213656,-24305.77865907892,-32064.605601382926,-35640.32592062067,-35595.980059621346,-22083.210597421003,-31768.33322862783
14382.542894189704,5040.8324647942145,-24320.508458674965,-32048.42293839728,-35870.8171094438,-35604.920757403466,-22266.852529865806,-31864.088101874368
14262.089343320054,5086.497078716407,-24263.735027758485,-31964.13451005632,-36016.28226235894,-35519.335927884094,-22345.41891162621,-31861.607058239828
14283.278797063685,5080.1491832911,-24246.54653627235,-31977.053818351487,-35813.90956806059,-35525.32619539812,-22185.358069581758,-31791.95902251709
14404.335845033627,5030.818883278237,-24303.699946844572,-32059.040017013554,-35636.43671708545,-35597.27646079975,-22083.143542187638,-31786.52754861445
14399.127888575542,5027.197900676478,-24329.024473312435,-32058.704740846726,-35818.53637916283,-35601.81386492418,-22230.374482914744,-31856.06382561491
14280.149552839943,5080.663273413572,-24272.94394647407,-31975.645658450805,-36016.79635248141,-35535.45153563637,-22351.208013440137,-31870.21247985512
14275.500389993238,5098.902296889102,-24234.633056477673,-31956.534916941517,-35855.10383309172,-35501.54393929767,-22212.67190130614,-31783.420656135164
14389.56134194867,5050.823694565737,-24285.729144302506,-32034.788374279546,-35633.86626647309,-35563.458271438874,-22068.03376293585,-31747.881382451225
14408.672083457957,5030.684772811505,-24330.320874490844,-32062.906868804323,-35762.65701802457,-35598.86343465608,-22185.5368835374,-31828.705290401616
14290.788983200668,5074.136564032622,-24288.634871081696,-31987.872062667855,-36000.814855195866,-35540.21245720535,-22343.273144158502,-31865.026875141488
14253.685087404858,5102.433872513041,-24242.41146354812,-31950.65640814977,-35904.21061566003,-35496.96183168433,-22245.64072437772,-31788.762723059983
14368.617757394048,5063.81005809427,-24278.107199443246,-32020.460906083696,-35655.90508650602,-35555.344588201595,-22081.489513097946,-31750.04950166339
14418.260981829284,5029.991868733391,-24330.365577979755,-32064.605601382926,-35719.987537859386,-35610.70985921739,-22156.546670978867,-31816.2106652511
14313.319541611618,5068.325110474242,-24298.894321786684,-31992.208301092185,-35978.12783457373,-35547.25325670878,-22330.71146377462,-31864.848061185847
14246.465473945795,5100.735139934438,-24244.423120549098,-31938.31824521044,-35946.50011616947,-35501.74510499777,-22277.290794526434,-31811.29328147093
14341.750960558767,5063.318319716253,-24265.187891148078,-31998.019754650566,-35680.71552285141,-35539.60896010506,-22092.777144047875,-31753.491670309508
14415.936400405932,5018.927755228014,-24331.326702991333,-32069.791206096557,-35685.25292697584,-35602.327955046654,-22126.662388642122,-31801.883197055246
14326.283553395697,5048.208540464466,-24315.81459233935,-32019.365670605384,-35949.40584294866,-35573.740073888315,-22317.412175823712,-31873.475834545596
14235.736636607247,5092.085014830233,-24251.307457841333,-31947.303646481472,-35978.016075851454,-35504.91905271042,-22303.688204728154,-31826.783040378457
14314.124204412008,5074.985930321924,-24256.60482127724,-31988.453208023693,-35718.55702621425,-35529.70713731136,-22113.273693713392,-31750.675350508136
14413.030673626743,5028.337839643698,-24318.586208651806,-32058.034188513066,-35649.84776375863,-35607.46885627137,-22091.212521936002,-31781.990144490024
14349.954050773866,5041.190092705499,-24321.357824964267,-32027.23348465365,-35900.45552259154,-35578.88097511303,-22280.352983516812,-31860.869450672802
14244.856148345012,5090.34157876272,-24260.38226609019,-31949.069434293444,-36006.469846543056,-35517.681898794406,-22331.538478319464,-31850.811165667914
14299.752032727247,5082.026729825346,-24245.473652538498,-31960.625286176837,-35767.46264308246,-35511.244596391276,-22149.14824356416,-31764.80165300389
14411.019016625765,5030.036572222301,-24308.550275391375,-32049.9652087647,-35638.38131885306,-35585.698257171905,-22083.300004398825,-31767.28269663843
14363.74507710279,5020.179452917511,-24340.62502868474,-32058.235354213164,-35872.15821411112,-35613.14619936302,-22269.132407800247,-31865.205689097133
14250.086456547555,5075.030633810835,-24274.441513352576,-31965.47561472364,-36029.00040495401,-35529.774192544726,-22357.086522231883,-31866.859718186824
14276.908549893922,5087.279389772343,-24238.723425712997,-31957.116062297355,-35821.93384432004,-35499.88991020798,-22188.129685894215,-31768.08735943882
14397.898542630499,5035.870377525137,-24292.702888572563,-32031.279150400063,-35628.16657163698,-35577.20459427888,-22067.4079140911,-31746.227353361533
14391.863571627568,5022.861662252148,-24326.38696746671,-32047.953551763723,-35804.45478015599,-35593.4990159868,-22214.504744351478,-31833.44386022614
14269.8677503905,5071.946093076002,-24275.3802866197,-31967.599030446894,-36015.343489091814,-35531.76349780124,-22348.458748872134,-31857.024950626488
14258.9153956074,5090.676854929549,-24238.164632101612,-31947.57186741494,-35868.537231509355,-35505.07551492161,-22223.914828767163,-31779.01736247747
14378.161952276463,5045.079296240723,-24287.986670492493,-32033.38021437886,-35641.689377032446,-35574.7459023888,-22078.673193296578,-31752.687007509114
14398.703205430891,5016.46906333793,-24337.33932224981,-32072.29460147555,-35762.41114883556,-35621.66221400049,-22193.24823537448,-31835.50022071603
14280.328366795584,5055.025822523335,-24298.71550783104,-31996.43278079424,-36006.402791309694,-35561.55837316017,-22350.515109362022,-31874.660477001726
14239.894061075935,5082.809040881281,-24249.65342875164,-31957.026655319532,-35922.89667402466,-35518.911244739444,-22261.890442596727,-31813.416697194185
14356.324297943629,5050.466066654452,-24272.04987669586,-32012.570740290972,-35659.83899353015,-35554.76344284576,-22081.3106991423,-31752.016455175457
14411.980141637343,5016.491415082385,-24326.409319211165,-32064.04680777154,-35714.377250001104,-35604.80899868119,-22148.14241506367,-31806.9570430466
14307.418681075416,5049.057906753767,-24304.370499178232,-32007.51924604407,-35981.70411368658,-35568.71093138587,-22339.361588878823,-31867.038532142466
14243.626802399971,5096.845936399214,-24240.824489691793,-31937.9382655547,-35959.911162842654,-35507.802427745155,-22290.925358644174,-31810.48861867054
14343.896728026479,5072.5272384318405,-24254.101425898247,-31983.401713776795,-35690.907918323035,-35535.7868118032,-22090.676080069075,-31741.37702481473
14428.38632206754,5035.736267058404,-24311.679519615118,-32048.713511075202,-35676.91572629401,-35601.43388526844,-22114.145411747148,-31788.114522470776
14341.616850092036,5061.396069693097,-24305.264568956445,-32006.625176265858,-35943.773203345925,-35581.362018747575,-22315.691091500652,-31864.892764674758
14251.9640030818,5107.463015015485,-24244.445472293555,-31942.140393512298,-35992.36589579176,-35512.54099756968,-22320.474364814087,-31826.67128165618
14330.999771475766,5093.694340431016,-24242.523222270396,-31963.821585633945,-35735.432593278005,-35519.31357613964,-22126.796499108852,-31746.04853940589
14434.24247911483,5047.38152591962,-24305.33162418981,-32038.275246414574,-35654.563981838706,-35599.55633873419,-22100.823772051786,-31775.597545575805
14372.37285046254,5060.010261536868,-24308.05853701336,-32011.09552515692,-35899.62850804669,-35588.08989382862,-22288.243149309536,-31852.17462207969
14255.786151383658,5102.657389957594,-24247.32884732829,-31934.630207375314,-36010.69432624511,-35500.51575905273,-22335.36062662132,-31828.638235168248
14297.516858281715,5092.241477041421,-24237.09174836776,-31942.36391095685,-35781.83481476722,-35508.33886961208,-22161.15113033666,-31751.144737141698
14408.627379969048,5034.708086813461,-24300.235426454,-32032.62025506738,-35643.25399914432,-35594.080161342645,-22089.223216679482,-31762.432368091628
14382.252321511785,5042.955880517469,-24314.697005116584,-32021.779659006555,-35855.99790286993,-35592.470835741864,-22254.78258785994,-31839.568238206895
14265.732677666269,5097.114157332678,-24253.36381833122,-31931.635073618305,-36022.6525095287,-35515.20085515986,-22350.693923317664,-31839.25531378452
14280.954215640333,5100.533974234339,-24230.3191697978,-31933.333806196908,-35831.768611880376,-35503.488541065286,-22197.942101710094,-31757.604391289282
14403.441775255416,5054.198807978489,-24281.929347745103,-32017.9575107047,-35633.97802519536,-35572.17545177644,-22080.975422975473,-31744.014530660457
14401.22895255434,5038.060848481757,-24319.681444130118,-32037.247066169628,-35802.37606792165,-35606.84300742662,-22227.06642473536,-31831.20868578061
14279.054317361632,5085.155974049088,-24269.837053994783,-31951.46107095016,-36019.23269262704,-35548.37084393154,-22363.300307190457,-31860.690636717158
14260.97175609729,5099.952828878502,-24229.31334129731,-31929.623416617327,-35879.10960663672,-35516.765477271736,-22237.16941322916,-31782.772455545957
14379.190132521408,5054.288214956309,-24274.150940674655,-32010.894359456823,-35645.042138700745,-35562.27362898274,-22086.5633590893,-31750.407129574673
14413.790632938222,5032.85289202367,-24317.0886417733,-32046.59009535195,-35749.84946845168,-35607.021821382266,-22189.403735328167,-31823.25146475452
14293.11356462402,5065.754659861882,-24285.37151639122,-31985.078094610944,-36005.285204086926,-35561.647780137995,-22364.61906011332,-31875.934526435678
14248.432427457861,5095.460128242985,-24231.883791909673,-31931.791535829492,-35925.020089747915,-35499.53228229669,-22280.241224794536,-31804.319537200874
14351.921004285932,5050.6895840990055,-24266.10431267075,-32000.9031296853,-35668.71263607891,-35553.601152134084,-22102.52250463039,-31750.451833063584
14412.158955592986,5017.832519749703,-24320.039072041403,-32055.77666232308,-35713.773752900815,-35606.12775160405,-22164.302726304857,-31810.48861867054
14312.179602644397,5055.584616134717,-24299.81074330935,-32000.791370963023,-35978.21724155155,-35567.369826718554,-22350.2245366841,-31875.509843291027
14240.497558176228,5096.108328832189,-24237.248210578946,-31931.813887573946,-35961.36402623225,-35504.33790735459,-22311.153687376223,-31824.279644999464
14332.854966265557,5067.386337207119,-24251.307457841333,-31982.41823702076,-35697.43462770398,-35531.919960012434,-22121.208562995027,-31751.345902841796
14413.075377115652,5018.190147660988,-24321.737804620007,-32063.44331067125,-35681.54253739626,-35602.23854806883,-22144.05204582835,-31799.893891798725
14331.849137765068,5038.932566515514,-24315.702833617073,-32013.1071821579,-35944.62256963523,-35577.651629167995,-22340.121548190302,-31878.527328792494
14244.900851833923,5092.085014830233,-24250.189870618568,-31930.763355584546,-36003.98880290852,-35504.092038165574,-22353.51024311903,-31844.73149117607
14311.017311932721,5071.566113420262,-24253.632039264685,-31966.928478113234,-35748.46366029545,-35523.69451805288,-22164.61565072723,-31765.76277801547
14414.528240505248,5022.302868640765,-24316.731013862016,-32049.518173875593,-35660.95658075292,-35615.18020810845,-22134.261981756925,-31793.031906250944
14365.220292236841,5039.4243048935305,-24319.05559528537,-32010.693193756724,-35896.7227812675,-35588.492225228816,-22313.388861821757,-31865.339799563862
14255.026192072177,5090.073357829257,-24257.09655965526,-31930.964521284644,-36018.58449203784,-35509.85878823505,-22374.297365462466,-31851.97345637959
14296.712195481325,5092.085014830233,-24233.18019308808,-31936.17247774273,-35789.7473323044,-35497.00653517324,-22193.29293886339,-31762.074740180346
14407.107461346086,5034.886900769103,-24298.80491480886,-32035.548333591025,-35642.40463285502,-35584.55831820468,-22112.62549312419,-31767.90854548318
14381.805286622679,5034.0822379687115,-24321.089604030803,-32028.0604991985,-35849.89587663363,-35604.51842600327,-22279.369506760777,-31856.756729693025
14268.884273634467,5091.973256107957,-24260.80694923484,-31948.17536451523,-36024.32889036285,-35535.04920423618,-22379.885301576294,-31864.713950719113
14279.076669106087,5099.081110844745,-24231.302646553835,-31941.89452432329,-35841.402213740614,-35519.38063137301,-22226.462927635068,-31782.973621246056
14400.916028131966,5047.985023019913,-24283.046934967868,-32024.730089274657,-35641.62232179908,-35592.672001441955,-22102.343690674745,-31764.891059981714
14415.623475983559,5041.637127594606,-24311.52305740393,-32041.113917960396,-35791.423713138545,-35621.50575178931,-22229.323950925347,-31839.143555062245
14290.006672144733,5084.999511837901,-24268.875928983205,-31965.676780423735,-36015.83522746983,-35556.57393414664,-22369.827016571406,-31871.30771533343
14268.750163167735,5106.211317325988,-24224.530067983877,-31936.440698676193,-35885.9715921845,-35519.760611028745,-22250.55810815789,-31797.993993520024
14390.209542537874,5064.637072639117,-24266.193719648567,-32010.76024899009,-35647.76905152429,-35582.99369609281,-22096.80045804983,-31760.755987257482
14423.535993520736,5034.417514135542,-24318.787374351905,-32053.563839622006,-35750.65413125207,-35622.51158028979,-22190.186046384104,-31831.83453462536
14313.811279989635,5081.780860636337,-24283.963356490538,-31986.732123700636,-36000.47957902904,-35593.38725726453,-22354.113740219324,-31895.201730156154
14264.033945087665,5118.281259331854,-24229.782727930873,-31931.210390473654,-35925.35536591475,-35514.865578993034,-22267.74659964402,-31836.371938749784
14368.12601901603,5080.305645502287,-24261.008114934935,-31988.788484190525,-35665.67279883299,-35556.64098938,-22080.349574130723,-31755.257458121476
14428.341618578628,5040.85481653867,-24324.42001395464,-32052.021569254586,-35705.83888361918,-35606.105399859596,-22135.088996301773,-31794.037734751433
14332.16206218744,5076.774069878348,-24301.2859584434,-31991.26952782506,-35965.38734023421,-35564.777024361734,-22317.07689965688,-31853.806299424923
14259.407133985416,5120.784654710848,-24240.489213524965,-31929.9363410397,-35965.52145070094,-35502.013325931235,-22286.4103062642,-31801.63732786624
14352.79272231969,5098.745834677915,-24247.708826984028,-31977.076170095945,-35705.14597954106,-35528.88012276651,-22104.668272098097,-31739.007739902467
14441.104464662609,5053.416496922552,-24308.505571902464,-32052.982694266168,-35665.516336621804,-35592.15791131949,-22107.104612243726,-31785.34290615832
14365.533216659214,5075.835296611225,-24300.973034021026,-32016.9069787153,-35919.83448503429,-35571.39314072051,-22286.49971324202,-31857.382578537774
14269.10779107902,5123.556271023306,-24241.003303647438,-31949.9411523272,-36002.37947730774,-35513.43506734789,-22337.819318511407,-31850.185316823165
14326.819995262624,5102.366817279675,-24245.451300794044,-31990.308402813484,-35765.003951192375,-35518.777134272714,-22172.61757524223,-31778.503272354996
14430.42033081297,5049.7508108318825,-24299.56487412034,-32056.268400701098,-35637.9119322195,-35571.54960293169,-22070.715972270486,-31749.80363247438
14378.161952276463,5060.926683059536,-24312.595941137784,-32048.132365719364,-35874.281629834375,-35591.219138052365,-22249.775797101953,-31862.232907084577
14271.410020757918,5115.666105230583,-24248.737007228974,-31967.688437424713,-36008.81677971086,-35516.609015060545,-22328.342178862356,-31885.478721318093
14305.78700373018,5106.859517915192,-24230.766204686905,-31970.862385137367,-35785.61225958017,-35492.26796534872,-22149.349409264258,-31761.85122273579
14422.977199909354,5054.757601589871,-24289.461885626544,-32057.944781535243,-35625.03732741324,-35552.66237886696,-22059.98713493194,-31739.56653351385
14408.895600902511,5055.852837068181,-24310.874856814728,-32058.078892001977,-35820.011594296884,-35565.2464109953,-22218.796279286897,-31813.640214638737
14287.033890132177,5100.802195167804,-24259.04116142287,-31981.971202131655,-36008.146227377205,-35509.29999462366,-22334.13128067628,-31835.1649445492
14290.185486100376,5110.368741794675,-24225.267675550902,-31974.48336773913,-35838.02710032786,-35482.075569877095,-22195.05872667536,-31766.455682093583
14404.827583411645,5055.651671368083,-24281.504664600452,-32061.118729247897,-35631.407574583005,-35564.8440795951,-22069.710143769997,-31757.38087384473
14412.76245269328,5037.859682781659,-24327.48220294502,-32084.051619059042,-35785.5452043468,-35594.929527631946,-22208.313311137357,-31845.625560954282
14300.601399016548,5093.4261194975525,-24272.765132518427,-32000.299632585007,-36009.71084948908,-35521.81697151864,-22355.164272208724,-31876.470968302605
14281.624767973992,5124.763265223893,-24223.5689429723,-31968.29193452501,-35887.066827662806,-35484.467206533816,-22241.907983053683,-31801.19029297713
14395.104574573586,5080.193886780011,-24266.66310628213,-32045.941894762746,-35643.72338577788,-35549.77900383223,-22082.74121078744,-31761.09126342431
14434.42129307047,5048.588520120206,-24319.70379587457,-32093.86403487492,-35734.315006055236,-35594.72836193185,-22176.73029622201,-31830.7616508915
14322.193184160375,5089.134584562134,-24288.85838852625,-32023.18781890724,-35987.98495387852,-35552.32710270013,-22346.067112215416,-31883.534119550484
14270.426544001884,5130.150035637622,-24228.84395466375,-31961.966390844154,-35931.658557851144,-35482.857880933036,-22275.4579514811,-31815.227188495064
14375.546798175194,5097.717654432971,-24253.36381833122,-32023.72426077417,-35672.69124659196,-35523.00161397477,-22095.347594660234,-31753.08933890931
14440.590374540136,5053.95293878948,-24312.215961482045,-32086.30914524903,-35693.23249974639,-35589.4980537293,-22137.86061261423,-31805.9065110572
14338.107626212553,5073.175439021044,-24299.274301442423,-32034.542505090536,-35960.78288087641,-35560.03845453721,-22324.832954982874,-31874.012276412523
14258.982450840766,5116.716637219982,-24238.432853035076,-31969.76714965906,-35976.58556420631,-35497.09594215106,-22305.588103006852,-31830.58283693586
14345.55075711617,5091.81679389677,-24248.737007228974,-32015.18589439224,-35715.89716862407,-35524.588587831095,-22117.744042604452,-31757.112652911266
14435.158900637496,5043.291156684299,-24311.388946937197,-32085.951517337744,-35669.092615734655,-35593.61077470908,-22113.720728602497,-31794.171845218167
14364.259167225262,5066.33580521772,-24304.34814743378,-32043.013816239098,-35921.309700168335,-35573.56125993267,-22296.73681220255,-31864.892764674758
14258.40130548493,5110.324038305765,-24246.926515928095,-31969.498928725596,-36004.65935524218,-35503.17561664291,-22327.313998617414,-31840.283494029463
14310.50322181025,5090.967427607468,-24245.428949049587,-31999.56202501798,-35765.69685527049,-35520.76643952924,-22149.170595308613,-31765.539260570917
14425.033560399243,5045.325165429731,-24298.20141770857,-32073.7698166096,-35648.886638747055,-35594.52719623175,-22089.111457957206,-31776.737484543024
14386.923836102944,5057.350403946687,-24305.77865907892,-32051.77570006558,-35876.04741764634,-35571.25903025377,-22262.82921586385,-31855.8179564259
14274.002823114733,5105.227840569954,-24247.306495583834,-31973.18696656072,-36020.57379729435,-35506.5283783112,-22340.099196445848,-31849.000674367035
14310.123242154508,5116.381361053152,-24221.289065037858,-31974.885699139322,-35810.310937203285,-35504.31555561013,-22178.183159611603,-31772.24478390751
14426.464072044382,5066.000529050891,-24278.59893782126,-32053.362673921907,-35637.26373163029,-35569.403835463985,-22081.154236931114,-31767.752083271993
14408.381510780038,5055.76343009036,-24310.137249247702,-32061.364598436907,-35827.030042055856,-35583.32897225964,-22229.79333755891,-31846.139651076755
14285.49161976476,5103.015017868879,-24261.455149824043,-31985.860405666877,-36027.9051694757,-35528.41073613295,-22350.55981285093,-31865.9209449197
14290.029023889188,5120.762302966393,-24218.78566965886,-31962.860460622367,-35859.21655407149,-35496.3806863285,-22212.582494328322,-31791.33317367234
14408.13564159103,5068.950959318991,-24269.837053994783,-32048.959380264212,-35640.32592062067,-35551.03070152172,-22076.4603705955,-31757.604391289282
14422.194888853419,5044.967537518446,-24315.546371405886,-32066.863127572913,-35779.823157766245,-35587.82167289516,-22196.86921797624,-31830.046395068934
14302.389538572972,5086.00534033839,-24273.0780569408,-31991.068362124966,-36013.51064604648,-35532.836381535104,-22352.683228574184,-31865.11628211931
14275.142762081954,5113.565041251783,-24221.02084410439,-31950.27642849403,-35903.137731926174,-35480.1756715984,-22249.418169190667,-31785.611127091783
14392.534123961226,5076.86347685617,-24253.386170075675,-32019.23156013865,-35650.7641852813,-35534.22218969133,-22078.069696196282,-31734.447984033584
14437.081150660653,5045.0569444962675,-24310.24900796998,-32068.651267129335,-35731.07400310922,-35587.307582772686,-22164.52624374941,-31804.587758134337
14326.372960373517,5079.903314102092,-24285.930310002605,-32008.18979837773,-35995.36102954877,-35543.811088062655,-22348.861080272327,-31867.55262226494
14265.643270688448,5115.621401741672,-24228.486326752463,-31955.79730937449,-35948.06473828134,-35503.488541065286,-22287.594948720332,-31813.841380338836
14364.817960836644,5079.031596068335,-24251.46392005252,-32013.04012692453,-35687.331639210184,-35526.957872743355,-22109.406841922624,-31760.554821557384
14447.921746721477,5050.108438743167,-24300.235426454,-32067.846604328945,-35688.11395026612,-35584.55831820468,-22142.174499294102,-31803.38076393375
14353.776199075724,5073.309549487776,-24286.734972802995,-32016.057612425997,-35947.34948245877,-35558.18325974742,-22324.09534741585,-31860.869450672802
14264.01159334321,5111.1510528506105,-24232.397882032143,-31954.970294829644,-35977.54668921789,-35502.214491631334,-22315.89225720075,-31827.25242701202
14339.716951813336,5084.306607759787,-24244.244306593457,-32004.211187864687,-35722.93796812749,-35519.917073239936,-22132.630304411687,-31762.253554135987
14429.369798823573,5030.774179789327,-24308.48322015801,-32082.73286613618,-35666.29864767774,-35596.53885323273,-22123.019054295906,-31799.022173764966
14361.398143934983,5054.288214956309,-24304.862237556248,-32043.617313339393,-35912.078429708294,-35579.19389953541,-22306.191600107148,-31875.39808456875
14258.848340374034,5107.239497570932,-24238.879887924184,-31955.663198907758,-35998.98201215053,-35511.89279698048,-22335.51708883251,-31852.465194757606
14313.677169522904,5095.236610798432,-24231.056777364825,-31979.691324197214,-35761.49472731289,-35514.68676503739,-22154.892641889175,-31768.10971118328
14427.67106624497,5044.85577879617,-24294.3345659178,-32064.53854614956,-35637.554304308214,-35589.52040547376,-22095.459353382514,-31777.72096129906
14383.45931571237,5044.85577879617,-24314.71935686104,-32053.072101243986,-35867.24083033095,-35597.32116428866,-22278.766009660485,-31873.677000245694
14266.850264889035,5098.298799788809,-24252.447396808555,-31964.42508273424,-36020.48439031654,-35510.75285801326,-22360.95337402265,-31869.11724437681
14305.36232058553,5113.274468573865,-24219.1656493146,-31955.059701807466,-35811.361469192685,-35502.12508465351,-22190.63308127321,-31781.43135087864
14428.609839512092,5064.078279027734,-24273.0780569408,-32036.57651383597,-35626.154914636005,-35567.593344163106,-22078.09204794074,-31765.76277801547
14410.639036970024,5045.436924152008,-24315.3899091947,-32055.843717556447,-35815.13891400563,-35601.500940501806,-22234.084872494328,-31849.760633678514
14290.945445411855,5095.504831731896,-24263.913841714126,-31972.315248526964,-36017.310442603884,-35522.5322273412,-22359.18758621068,-31866.077407130888
14283.010576130222,5108.222974326965,-24229.670969208597,-31956.870193108345,-35864.3127518073,-35499.73344799679,-22228.31812242486,-31791.19906320561
14405.65459795649,5060.703165614983,-24277.74957153196,-32035.548333591025,-35647.970217224385,-35562.27362898274,-22090.31845215779,-31761.51594656896
14419.512679518783,5035.400990891575,-24326.3422639778,-32065.63378162787,-35778.571460076746,-35602.50676900229,-22210.25791290497,-31836.617807938794
14295.68401523638,5075.567075677762,-24289.126609459712,-31997.48331278364,-36022.42899208415,-35552.17064048894,-22368.195339226168,-31883.668230017214
14267.54316896715,5109.541727249829,-24232.621399476695,-31950.81287036096,-35922.226121691005,-35504.15909339894,-22268.97594558906,-31821.932711831658
14379.257187754774,5065.978177306435,-24269.14414991667,-32025.28888288604,-35669.80787155723,-35557.37859694703,-22103.170705219592,-31776.446911865107
14435.38241808205,5037.904386270569,-24314.473487672032,-32065.9690577947,-35726.60365421816,-35591.17443456345,-22163.72158094902,-31808.991051792033
14323.131957427498,5068.7721453633485,-24289.216016437535,-32008.14509488882,-35985.81683466635,-35550.06957651014,-22342.75905403603,-31863.909287918723
14261.06116307511,5107.954753393502,-24229.08982385276,-31954.07622505143,-35956.31253198535,-35498.235881118286,-22297.250902325024,-31823.229113010064
14365.08618177011,5082.71963390346,-24244.17725136009,-31999.629080251347,-35691.55611891224,-35542.22411420633,-22110.70324310103,-31762.18649890262
14439.42808382846,5037.993793248391,-24308.080888757813,-32065.745540350144,-35688.024543288295,-35594.90717588749,-22133.412615467623,-31794.551824873906
14344.07554198212,5058.33388070272,-24301.531827632407,-32023.925426474267,-35956.491345940995,-35566.76632961826,-22326.285818372467,-31870.525404277494
14254.109770549509,5104.825509169759,-24238.544611757352,-31951.8410506059,-35995.495140015504,-35491.3291920816,-22325.302341616436,-31839.88116262927
14335.872451767023,5091.570924707762,-24236.33178905628,-31984.38519053283,-35734.22559907742,-35512.898625480964,-22132.630304411687,-31762.879402980736
14432.633153514047,5037.770275803838,-24302.202379966067,-32068.517156662605,-35660.73306330837,-35596.315335788175,-22110.50207740093,-31791.28847018343
14365.08618177011,5048.297947442287,-24305.443382912086,-32044.35492090642,-35908.90448199564,-35574.20946052187,-22301.49773377153,-31875.241622357564
14264.43627648786,5103.238535313432,-24235.147146600146,-31950.23172500512,-36005.82164595385,-35504.69553526587,-22341.060321457426,-31853.180450580177
14316.761710257735,5096.510660232385,-24221.803155160327,-31962.480480966628,-35769.38489310561,-35497.945308440365,-22159.4300460136,-31766.992123960514
14426.66523774448,5042.039458994801,-24286.153827447157,-32047.730034319167,-35639.00716769781,-35577.6963326569,-22093.5147516149,-31775.217565920066
14389.159010548474,5044.609909607161,-24306.359804434756,-32044.9137145178,-35858.881277904664,-35601.74680969081,-22274.876806125263,-31868.424340298694
14270.337137024062,5095.080148587245,-24249.2734490959,-31962.458129222174,-36020.37263159426,-35515.73729702679,-22364.95433628015,-31873.051151400945
14301.227247861296,5107.127738848655,-24215.41055624611,-31950.41053896076,-35816.3012047173,-35496.3806863285,-22198.456191832567,-31786.77341780346
14425.57000226617,5053.975290533936,-24268.60770804974,-32035.414223124295,-35625.52906579126,-35572.17545177644,-22085.13284744416,-31759.95132445709
14415.08703411663,5035.602156591673,-24307.879723057715,-32053.899115788834,-35804.23126271144,-35584.357152504585,-22233.347264927303,-31838.58476145086
14287.793849443657,5082.071433314256,-24264.338524858777,-31973.254021794084,-36019.85854147179,-35524.722698297825,-22367.4800834036,-31869.385465310275
14275.902721393433,5103.48440450244,-24222.160783071613,-31945.873134836333,-35867.687865220054,-35496.09011365058,-22235.78360507293,-31795.043563251922
14399.954903120388,5059.920854559047,-24268.026562693904,-32023.411336351794,-35636.034385685256,-35562.16187026046,-22089.13380970166,-31762.72294076955
14425.480595288349,5036.4291711365195,-24318.51915341844,-32060.15760423632,-35758.7901662338,-35606.12775160405,-22204.759383768964,-31842.786889408457
14314.59359104557,5084.775994393349,-24270.507606328443,-31978.484329996627,-35999.80902669537,-35540.97241651683,-22361.355705422844,-31876.40391306924
14266.470285233294,5106.121910348166,-24230.833259920273,-31943.302684223974,-35921.309700168335,-35493.609070016035,-22275.34619275882,-31805.548883145915
14380.17360927744,5070.783802364326,-24262.148053902158,-32009.79912397851,-35668.734987823365,-35543.676977595926,-22108.445716911046,-31758.67727502314
14441.439740829437,5045.839255552203,-24311.09837425928,-32053.25091519963,-35717.84177039168,-35603.06556261368,-22172.975203153517,-31820.412793208696
14338.331143657106,5082.138488547622,-24284.90212975766,-31991.358934802884,-35976.183232806114,-35554.718739356846,-22348.99519073906,-31877.63325901428
14267.073782333588,5121.701076233516,-24223.50188773893,-31933.020881774533,-35953.31739822834,-35484.31074432263,-22301.49773377153,-31821.195104264632
14367.455466682371,5099.1034625892,-24237.024693134394,-31985.033391122033,-35686.05758977623,-35517.41367786094,-22111.32909194578,-31746.562629528362
14448.458188588404,5057.551569646785,-24298.71550783104,-32046.076005229475,-35674.68055184848,-35587.151120561495,-22134.686664901576,-31794.82004580737
14358.738286344802,5075.634130911128,-24292.591129850287,-32007.51924604407,-35942.34269170078,-35569.09091104161,-22327.42575733969,-31868.98313391008
14263.184578798364,5117.67776223156,-24230.788556431362,-31939.45818417766,-35992.9470411476,-35501.096904408565,-22333.28191438698,-31836.573104449883
14336.252431422763,5098.790538166826,-24231.50381225393,-31981.27829805354,-35736.17020084503,-35527.69548031038,-22145.504909217943,-31772.781225774437
14436.924688449466,5043.537025873306,-24295.318042673833,-32054.56966812249,-35662.27533367578,-35585.29592577171,-22119.018092038405,-31781.0513712229
14379.570112177147,5054.71289810096,-24298.469638642033,-32023.791316007533,-35906.356383127735,-35586.36880950556,-22302.168286105192,-31852.82282266889
14274.069878348098,5109.832299927748,-24233.85074542174,-31939.88286732231,-36017.69042225962,-35504.22614863231,-22355.18662395318,-31843.90447663122
14324.763634772735,5107.552421993306,-24215.432907990566,-31952.13162328382,-35782.66182931207,-35507.46715157833,-22171.857615930752,-31760.353655857285
14435.404769826506,5049.504941642874,-24281.191740178077,-32045.114880217898,-35643.74573752234,-35589.29688802921,-22096.018146993894,-31772.133025185234
14404.000568866799,5048.901444542581,-24301.688289843594,-32038.185839436752,-35855.550867980826,-35587.352286261594,-22264.416189720177,-31858.20959308262
14285.648081975947,5103.909087647091,-24239.93041991358,-31948.957675571168,-36022.42899208415,-35518.285395894694,-22361.400408911755,-31863.194032096155
14299.170887371409,5107.619477226673,-24210.873152121683,-31943.74971911308,-35832.23799851394,-35498.45939856284,-22205.407584358167,-31771.417769362663
14415.399958539005,5052.835351566715,-24270.23938539498,-32033.760194034603,-35644.975083467376,-35574.12005354405,-22097.5157138724,-31760.308952368374
14411.354292792594,5037.144426959089,-24313.512362660455,-32059.06236875801,-35815.13891400563,-35604.8537021701,-22247.339456956324,-31853.761595936016
14291.9736256568,5085.0889188157225,-24261.678667268596,-31967.487271724618,-36028.419259598166,-35534.445707135885,-22378.365382953332,-31869.966610666113
14281.289491807163,5110.6816662170495,-24215.254094034924,-31942.520373168038,-35885.52455729539,-35493.4302560604,-22248.725265112553,-31790.796731805414
14395.261036784774,5063.295967971799,-24263.489158569475,-32027.0099672091,-35648.14903118003,-35557.2444864803,-22091.32428065828,-31752.687007509114
14427.268734844773,5039.156083960067,-24311.500705659477,-32057.900078046332,-35758.924276700534,-35606.172455092965,-22201.96541571205,-31826.24659851153
14309.54209679867,5081.28912225832,-24275.201472664055,-31990.062533624478,-36003.8993959307,-35563.391216205506,-22366.742475836574,-31873.006447912034
14258.49071246275,5107.999456882412,-24224.530067983877,-31944.487326680104,-35927.83640954929,-35495.88894795048,-22281.872902139774,-31804.543054645426
14372.864588840555,5076.349386733697,-24250.3239810853,-32002.870083197366,-35669.20437445693,-35547.18620147541,-22108.065737255307,-31752.70935925357
14438.578717539158,5042.240624694899,-24305.555141634362,-32059.509403647116,-35705.101276052155,-35604.786646936736,-22161.553461736854,-31804.72186860107
14325.41183536194,5062.4913051714075,-24294.535731617896,-32012.66014726879,-35980.00538110798,-35555.00931203477,-22356.70654257614,-31872.380599067284
14255.652040916926,5107.306552804298,-24230.1180040977,-31944.263809235552,-35971.91404961515,-35496.40303807295,-22321.23432412557,-31822.71502288759
14347.964745517344,5076.707014644982,-24244.64663799365,-31989.1014086129,-35702.150845784054,-35541.0394717502,-22133.166746278614,-31765.583964059828
14430.800310468712,5029.388371633097,-24309.086717258302,-32064.940877549754,-35680.33554319567,-35607.491208015825,-22152.635115699188,-31813.86373208329
14350.021106007232,5056.299871957287,-24298.737859575496,-32019.81270549449,-35937.402956176156,-35576.69050415642,-22335.00299871004,-31873.29702058995
14252.567500182093,5102.34446553522,-24234.633056477673,-31943.66031213526,-35993.97522139254,-35498.437046818384,-22337.79696676695,-31824.2125897661
14323.243716149775,5085.044215326812,-24231.74968144294,-31969.90126012579,-35743.16629685954,-35511.088134180085,-22151.070493587315,-31748.462527807063
14429.012170912287,5035.155121702566,-24295.318042673833,-32043.259685428107,-35649.020749213785,-35587.39698975051,-22117.833449582275,-31774.837586264326
14378.117248787554,5048.09678174219,-24305.353975934268,-32024.059536941,-35891.112493409215,-35585.273574027255,-22305.275178584478,-31863.21638384061
14269.10779107902,5102.8138521687815,-24239.99747514695,-31939.726405111123,-36014.449419313605,-35506.86365447803,-22365.736647336085,-31851.414662768206
14312.44782357786,5101.7633201793815,-24217.98100685847,-31945.917838325244,-35783.80176827929,-35493.09497989356,-22184.35224108127,-31761.71711226906
14426.911106933489,5047.493284641896,-24281.415257622633,-32034.877781257368,-35634.04508042873,-35562.78771910521,-22099.4156121511,-31754.542202298904
14395.70807167388,5041.413610150053,-24309.734917847505,-32037.068252213987,-35844.86673413119,-35598.03642011123,-22265.48907345403,-31843.34568301984
14274.427506259384,5093.470822986463,-24252.33563808628,-31951.61753316135,-36023.85950372928,-35520.29705289567,-22371.056362516447,-31856.421453526196
14284.955177897833,5102.545631235317,-24221.177306315578,-31941.961579556657,-35841.02223408488,-35499.30876485214,-22218.72922405353,-31773.988219975025
14407.912124146478,5053.416496922552,-24270.775827261907,-32022.271397384575,-35634.62622578457,-35568.30859998567,-22089.670251568587,-31750.85416446378
14414.796461438711,5036.071543225235,-24308.61733062474,-32043.192630194742,-35786.7969020363,-35601.56799573517,-22224.272456678445,-31832.996825337035
14296.287512336674,5087.234686283432,-24262.3268678578,-31963.039274578012,-36014.89645420271,-35542.335872928605,-22372.95626079515,-31870.324238577396
14284.508143008727,5119.0188668988785,-24212.683643422562,-31919.36396591234,-35883.24467936095,-35497.20770087334,-22251.228660491546,-31783.443007879618
14398.837315897623,5069.397994208097,-24262.595088791262,-32009.508551300594,-35650.29479864774,-35556.17160274644,-22101.986062763463,-31751.032978419422
14438.131682650053,5047.04624975279,-24305.33162418981,-32045.606618595913,-35744.172125360026,-35600.76333293478,-22194.544636552888,-31820.90453158671
14325.769463273224,5090.967427607468,-24266.126664415202,-31959.23947802061,-35992.25413706948,-35529.99770998928,-22360.372228666813,-31858.097834360342
14272.907587636422,5121.589317511239,-24213.778878900874,-31916.212369944144,-35926.96469151553,-35485.227165845296,-22286.07503009737,-31796.87640629726
14377.066716798154,5080.797383880304,-24242.880850181682,-31978.28316429653,-35667.59504885615,-35541.79943106168,-22108.937455289062,-31746.160298128165
14437.95286869441,5038.597290348684,-24307.00800502396,-32045.651322084825,-35699.51333993833,-35604.38431553654,-22163.542766993378,-31808.432258180652
14332.87731801001,5065.933473817525,-24288.389001892687,-31989.9507749022,-35963.59920067778,-35549.957817787865,-22346.245926171057,-31863.976343152088
14256.076724061577,5110.2122795834875,-24227.949884885536,-31925.0860124929,-35967.13077630172,-35494.7266572388,-22319.468536313598,-31814.556636161404
14344.8355012936,5080.059776313278,-24244.736044971472,-31977.791425918513,-35702.79904637326,-35524.99091923129,-22130.596295666255,-31744.819193460848
14440.165691395485,5040.698354327483,-24298.1343624752,-32041.42684238277,-35659.45901387442,-35597.14235033302,-22127.601161909242,-31783.04067647942
14355.966670032343,5057.260996968866,-24300.4365921541,-32005.66405125428,-35922.092011224275,-35560.999579548785,-22317.859210712817,-31847.123127832787
14254.467398460794,5102.545631235317,-24242.41146354812,-31933.400861430273,-36002.4465325411,-35487.35058156855,-22341.95439123564,-31815.003671050512
14322.729626027301,5096.95769512149,-24233.023730876892,-31957.250172764085,-35751.97288417493,-35506.66248877794,-22156.14433957867,-31740.862934692257
14432.767263980779,5050.019031765346,-24295.988595007493,-32021.48908632864,-35645.28800788975,-35572.22015526535,-22111.060871012316,-31761.359484357774
14373.17751326293,5048.789685820304,-24318.47444992953,-32020.125629916864,-35893.81705448831,-35582.01021933678,-22305.78926870695,-31852.465194757606
14261.955232853323,5104.087901602734,-24253.721446242507,-31934.674910864225,-36031.436745099636,-35515.26791039323,-22378.52184516452,-31852.554601735428
14311.441995077372,5116.269602330876,-24219.23270454797,-31929.26578870604,-35800.453817898495,-35494.9278229389,-22195.706927264564,-31762.34296111381
14428.632191256547,5061.284310970821,-24275.536748830888,-32016.52699905956,-35629.84295247113,-35565.626390651036,-22096.062850482806,-31748.775452229438
14400.759565920778,5050.287252698809,-24306.71743234604,-32021.645548539826,-35832.5062194474,-35584.89359437151,-22258.35886697279,-31836.640159683247
14280.618939473503,5104.065549858278,-24244.93721067157,-31928.304663694464,-36016.77400073696,-35512.16101791394,-22366.47425490311,-31847.123127832787
14284.329329053084,5109.809948183292,-24212.996567844937,-31919.11809672333,-35846.14078356514,-35487.663505990924,-22222.797241544395,-31760.42071109065
14401.407766509983,5055.159932990066,-24268.18302490509,-32008.01098442209,-35637.75547000831,-35562.16187026046,-22096.12990571617,-31736.23612359001
14413.99179863832,5043.402915406575,-24306.76213583495,-32031.167391677787,-35785.58990783571,-35574.96941983335,-22222.52902061093,-31811.06976402638
14290.20783784483,5089.223991539954,-24263.08682716928,-31959.775919887536,-36015.11997164726,-35518.95594822836,-22369.33527819339,-31843.457441742117
14265.732677666269,5113.118006362678,-24216.37168125769,-31924.95190202617,-35899.29323187986,-35490.70334323685,-22256.43661694963,-31770.657810051183
14381.693527900403,5063.787706349815,-24256.09073115477,-31995.76222846058,-35653.40169112703,-35540.21245720535,-22090.22904517997,-31730.022338631436
14416.94222890642,5028.762522788349,-24313.53471440491,-32043.30438891702,-35747.16725911704,-35602.05973411319,-22191.258930117958,-31812.589682649337
14309.028006676199,5072.8178111097595,-24273.0780569408,-31964.022751334043,-35997.395038294206,-35529.953006500364,-22357.75707456554,-31851.30290404593
14259.384782240963,5113.363875551686,-24209.107364309715,-31906.958747739645,-35937.93939804308,-35479.61687798701,-22289.69601269913,-31786.39343814772
14358.760638089258,5072.8178111097595,-24239.684550724574,-31970.728274670637,-35676.75926408282,-35527.96370124385,-22112.536086146367,-31732.972768899534
14433.303705847706,5043.9393572735025,-24294.513379873442,-32026.406470108806,-35692.94192706847,-35581.87610887005,-22152.031618598896,-31775.48578685353
14340.611021591547,5075.567075677762,-24275.827321508805,-31965.162690301266,-35955.26199999595,-35555.18812599041,-22337.975780722594,-31842.3175027749
14252.902776348923,5108.133567349144,-24220.484402237464,-31907.36107913984,-35974.730369416524,-35491.06097114813,-22323.29068461546,-31807.1582087467
14336.69946631187,5082.429061225541,-24231.1685360871,-31961.787576888513,-35717.23827329138,-35523.89568375298,-22135.80425212434,-31741.80170795938
14433.326057592161,5046.442752652497,-24285.61738558023,-32035.213057424196,-35662.029464486775,-35587.82167289516,-22125.164821763614,-31771.462472851574
14353.195053719886,5057.775087091338,-24291.048859482868,-32008.61448152238,-35920.99677574597,-35583.53013795974,-22315.109946144814,-31850.58764822336
14244.275002989174,5099.505793989396,-24226.474669751486,-31934.093765508387,-36003.56411976387,-35521.4816953518,-22339.94273423466,-31824.43610721065
14305.988169430277,5089.514564217873,-24216.32697776878,-31959.999437332088,-35752.486974297404,-35522.196951174374,-22147.53891796338,-31742.963998671057
14418.104519618097,5043.402915406575,-24279.135379688192,-32044.623141839882,-35633.03925192824,-35578.702161157395,-22089.536141101857,-31756.039769177412
14365.220292236841,5039.446656637986,-24301.129496232214,-32034.564856834993,-35871.28649607736,-35593.38725726453,-22268.97594558906,-31847.324293532885
14254.087418805055,5096.398901510108,-24237.22585883449,-31945.22493424713,-36019.2997478604,-35519.626500562015,-22344.591897081365,-31844.865601642803
14298.9250181824,5110.480500516952,-24201.664233406096,-31939.189963244196,-35798.30805043078,-35515.11144818204,-22166.739066450486,-31756.12917615523
14415.221144583362,5053.975290533936,-24263.46680682502,-32028.082850942952,-35625.394955324526,-35576.08700705612,-22068.011411191394,-31752.888173209212
14398.680853686436,5046.018069507846,-24295.161580462645,-32036.73297604716,-35819.6539663856,-35588.29105952872,-22229.525116625442,-31844.55267722043
14277.266177805208,5095.661293943083,-24239.662198980117,-31952.757472128567,-36012.50481754599,-35519.335927884094,-22341.99909472455,-31857.67315121569
14270.985337613267,5104.669046958572,-24204.860532863204,-31938.385300443806,-35844.15147830862,-35494.05610490515,-22190.25310161747,-31769.450815850596
14396.42332749645,5057.1939417355,-24255.196661376558,-32016.504647315105,-35626.020804169275,-35557.46800392485,-22052.588707517232,-31742.315798081854
14413.343598049118,5035.535101358307,-24300.391888665188,-32053.67559834428,-35763.48403256942,-35593.297850286704,-22180.105409634758,-31821.575083920372
14299.550867027148,5089.559267706784,-24251.218050863514,-31971.57764095994,-35996.970355149555,-35542.67114909543,-22334.4218533542,-31864.557488507926
14268.861921890011,5118.415369798586,-24205.08405030776,-31938.139431254796,-35891.80539748733,-35479.92980240939,-22231.916753282163,-31793.657755095694
14386.186228535918,5074.7624128773705,-24245.630114749685,-32005.440533809728,-35644.37158636708,-35534.713928069345,-22067.56437630229,-31752.977580187035
14428.922763934466,5036.6079850921615,-24304.14698173368,-32065.946706050243,-35721.30629078225,-35597.85760615559,-22152.90333663265,-31827.408889223207
14313.274838122707,5069.330938974731,-24279.202434921557,-32010.42497282326,-35986.50973874447,-35559.01027429227,-22340.345065634858,-31890.731381265094
14255.316764750096,5106.546593492817,-24218.74096616995,-31951.550477927984,-35942.856781823255,-35495.82189271711,-22278.4083817492,-31825.57604617787
14355.027896765221,5068.213351751966,-24243.618457748707,-32013.755382747102,-35684.35885719763,-35544.8392683076,-22098.633301095164,-31763.70641752558
14432.364932580584,5031.0871042117005,-24298.112010730747,-32076.474377688693,-35690.52793866729,-35586.90525137249,-22131.53506893338,-31799.75978133199
14339.26991692423,5057.730383602427,-24285.460923369043,-32031.547371333527,-35955.53022092941,-35565.60403890658,-22321.1672688922,-31873.095854889856
14252.880424604467,5105.004323125401,-24218.584503958762,-31958.27835300903,-35980.02773285243,-35501.588642786584,-22312.22657111008,-31838.696520173136
14337.83940527909,5086.452375227496,-24221.69139643805,-31995.963394160677,-35715.45013373496,-35521.571102329624,-22121.65559788413,-31760.48776632402
14434.66716225948,5037.680868826016,-24285.058591968846,-32073.09926427594,-35650.94299923694,-35582.21138503688,-22106.27759769888,-31793.993031262522
14359.095914256086,5046.845084052692,-24291.875874027715,-32050.635761098358,-35906.89282499466,-35570.67788489794,-22297.675585469675,-31878.415570070218
14253.238052515753,5095.4824799874405,-24228.978065130483,-31973.790463661015,-36004.65935524218,-35508.02594518971,-22341.395597624254,-31852.59930522434
14308.983303187288,5084.1501455485995,-24222.27254179389,-31995.09167612692,-35765.78626224831,-35511.19989290236,-22162.313421048337,-31770.970734473558
14425.435891799438,5038.619642093139,-24281.012926222436,-32074.01568579861,-35634.22389438438,-35582.61371643707,-22096.353423160723,-31785.275850924954
14386.521504702749,5047.336822430709,-24295.27333918492,-32060.671694358793,-35854.075652846775,-35582.90428911499,-22266.606660676796,-31867.530270520485
14269.8677503905,5099.662256200583,-24233.247248321444,-31977.590260218414,-36011.02960241194,-35508.89766322347,-22353.24202218557,-31865.630372241783
14299.327349582596,5099.796366667315,-24204.100573551725,-31966.7943676465,-35805.28179470084,-35496.15716888394,-22187.839113216294,-31779.352638644297
14409.744967191813,5039.290194426799,-24267.51247257143,-32059.129423991377,-35628.05481291471,-35581.071446069654,-22086.965690489495,-31774.167033930666
14396.624493196547,5028.539005343796,-24300.01190900945,-32071.780511353078,-35805.1029807452,-35598.483455000336,-22236.454157406588,-31857.203764582133
14283.25644531923,5090.118061318167,-24240.51156526942,-31979.8477864084,-36009.487332044526,-35519.827666262114,-22364.61906011332,-31876.090988646865
14279.613110973014,5107.1053871042,-24200.568997927785,-31956.669027408247,-35850.96876036749,-35494.659602005435,-22229.949799770093,-31799.24569120952
14398.837315897623,5052.723592844438,-24254.391998576164,-32037.29176965854,-35630.1111734046,-35555.501050412786,-22091.99483299194,-31769.607278061783
14420.093824874619,5031.064752467246,-24302.180028221614,-32069.657095629824,-35760.75711974587,-35591.53206247474,-22208.33566288181,-31840.149383562733
14294.678186735891,5070.269712241854,-24268.56300456083,-31999.830245951445,-36009.621442511256,-35543.7887363182,-22373.962089295637,-31885.59048004037
14258.177788040375,5100.288105045332,-24217.198695802534,-31958.501870453583,-35912.54781634186,-35494.100808394054,-22278.63189919375,-31823.609092665803
14377.51375168726,5063.184209249522,-24245.51835602741,-32024.707737530203,-35652.41821437099,-35543.140535729,-22096.465181883003,-31770.031961206434
14428.699246489912,5029.8577582666585,-24300.414240409642,-32069.724150863192,-35714.44430523447,-35582.21138503688,-22166.269679816924,-31817.81999085188
14320.829727748602,5065.709956372972,-24271.334620873287,-31997.32685057245,-35976.0938258283,-35533.50693386876,-22348.034065727483,-31871.844157200358
14249.862939103,5099.505793989396,-24218.293931280845,-31952.153975028275,-35951.26103773845,-35487.35058156855,-22299.731945959564,-31828.72764214607
14348.8364635511,5068.325110474242,-24241.2715245809,-32009.843827467423,-35692.29372647926,-35530.78002104521,-22116.604103637233,-31773.60824031928
14432.677857002958,5031.310621656254,-24298.08965898629,-32071.31112471952,-35686.66108687653,-35596.941184632924,-22146.980124351994,-31817.57412166287
14348.277669939718,5060.680813870527,-24281.929347745103,-32022.00317645111,-35946.79068884739,-35562.76536736076,-22330.152670163236,-31878.795549725957
14261.262328775209,5111.352218550708,-24215.097631823737,-31946.87896333682,-35980.608878208266,-35491.70917173733,-22317.680396757176,-31829.53230494646
14335.112492455542,5087.078224072245,-24223.300722038835,-31997.9526994172,-35722.848561149665,-35520.29705289567,-22131.33390323328,-31762.38766460272
14435.494176804326,5038.9549182599685,-24283.98570823499,-32071.19936599724,-35649.087804447154,-35595.533024732234,-22108.825696566786,-31790.349696916306
14371.456428939871,5053.90823530057,-24283.695135557075,-32038.163487692298,-35897.66155453462,-35571.54960293169,-22295.529818001967,-31864.848061185847
14262.223453786786,5103.9314393915465,-24220.84203014875,-31960.021789076545,-36003.4970645305,-35505.6790120219,-22343.519013347508,-31851.325255790387
14321.477928337805,5104.8702126586695,-24203.944111340537,-31968.22487929164,-35760.98063719042,-35506.349564355565,-22160.011191369438,-31768.91437398367
14436.18708088244,5052.85770331117,-24267.691286527075,-32046.657150585314,-35621.99749016732,-35573.82948086614,-22088.262091667904,-31779.129121199745
14394.165801306464,5049.214368964955,-24294.155751962157,-32046.903019774323,-35845.35847250921,-35587.642858939515,-22265.220852520568,-31859.1707180942
14278.54022723916,5106.792462681826,-24232.50964075442,-31960.446472221196,-36010.40375356719,-35512.429238847406,-22358.271164688013,-31852.040511612955
14293.426489046395,5105.116081847677,-24209.710861410007,-31961.295838510498,-35812.65787037109,-35500.40400033045,-22200.020813944437,-31772.58006007434
14419.400920796505,5057.372755691142,-24265.791388248374,-32042.589133094447,-35624.344423335126,-35567.28041974073,-22088.32914690127,-31762.76764425846
14412.740100948824,5044.296985184787,-24303.208208466556,-32054.100281488933,-35798.12923647514,-35596.47179799936,-22235.560087628375,-31843.05511034192
14285.089288364565,5088.039349083823,-24255.12960614319,-31979.244289308106,-36014.91880594716,-35526.42143087643,-22377.270147475025,-31871.844157200358
14279.300186550641,5113.0285993848565,-24210.113192810204,-31951.394015716796,-35867.419644286594,-35502.39330558697,-22251.586288402832,-31794.82004580737
14406.548667734703,5068.548627918795,-24250.793367718863,-32030.76506027759,-35631.94401644993,-35558.5408876587,-22095.99579524944,-31758.85608897878
14428.699246489912,5039.6031188491725,-24301.174199721125,-32062.035150770564,-35754.520983042836,-35603.42319052496,-22204.982901213516,-31837.713043417105
14309.855021221045,5083.81486938177,-24258.90705095614,-31985.592184733414,-35999.11612261726,-35539.16192521595,-22367.18951072568,-31882.64004977227
14273.734602181268,5116.269602330876,-24203.02768981787,-31942.699187123682,-35909.217406418014,-35490.21160485883,-22273.088666568838,-31811.67326112667
14379.614815666058,5069.219180252455,-24242.545574014854,-32014.00125193611,-35657.02267372879,-35559.43495743692,-22107.261074454913,-31769.875498995247
